FP2-A2 ,F8 -A2 ,T4 -A2 ,T6 -A2 ,F4 -A2 ,C4 -A2 ,P4 -A2 ,O2 -A2 ,FP1-A1 ,F7 -A1 ,T3 -A1 ,T5 -A1 ,F3 -A1 ,C3 -A1 ,P3 -A1 ,O1 -A1 ,FZ -A2 ,CZ -A1 ,PZ -A2 ,BP1-REF,BP2-REF
,,,,,,,,,,,,,,,,,,,,
-11,25,-7,6,-2,26,-3,3,8,-15,-13,18,0,-11,-30,-52,24,-7,-32,-113,21
-5,29,4,9,0,22,2,2,1,-12,-4,23,0,-8,-25,-33,22,-3,-20,-119,19
8,37,27,21,6,21,20,7,-10,-5,10,31,1,-5,-15,-2,20,2,0,-104,15
23,45,55,38,14,21,43,13,-23,4,26,41,2,-1,-3,36,19,8,21,-71,9
35,47,83,51,20,15,63,17,-38,15,42,50,3,0,8,77,15,14,40,-26,3
39,41,102,57,21,3,75,17,-51,25,52,55,4,-2,15,112,8,18,50,19,-1
33,29,109,55,17,-10,76,14,-60,31,56,57,4,-5,16,131,0,18,49,56,-5
23,16,105,46,10,-23,68,10,-64,33,54,54,4,-9,12,135,-7,16,40,81,-8
16,8,99,39,5,-30,59,6,-66,32,49,50,3,-13,6,130,-13,13,30,98,-9
16,9,96,37,4,-30,57,5,-68,27,46,47,1,-16,1,125,-16,7,26,112,-10
24,15,98,40,6,-25,59,7,-70,20,44,45,-3,-19,-2,122,-16,1,26,127,-11
35,25,102,46,10,-18,64,10,-74,13,44,42,-8,-22,-5,119,-15,-5,30,141,-11
48,37,109,55,15,-8,71,16,-76,8,46,40,-11,-24,-6,119,-10,-11,36,155,-9
58,45,114,61,18,-2,75,21,-74,7,49,39,-10,-25,-6,118,-3,-14,39,168,-7
54,39,108,56,15,-6,67,19,-72,8,47,35,-9,-27,-10,112,-5,-15,36,178,-4
44,24,95,46,7,-16,53,9,-71,8,42,28,-11,-31,-16,102,-15,-17,31,188,-1
36,13,85,40,1,-22,47,0,-71,5,37,24,-13,-32,-19,95,-24,-20,30,203,1
33,7,80,40,-3,-23,48,-3,-70,3,34,22,-13,-32,-18,93,-27,-22,32,223,2
29,1,77,39,-7,-24,49,-5,-68,0,32,21,-13,-32,-17,91,-28,-23,33,241,2
26,-3,74,37,-11,-26,50,-6,-67,-4,28,20,-16,-33,-16,90,-28,-26,34,252,0
24,-6,71,35,-15,-26,50,-7,-66,-9,25,19,-18,-34,-14,91,-29,-28,34,256,-2
20,-11,67,31,-19,-29,46,-9,-65,-13,22,18,-21,-35,-12,91,-31,-30,32,252,-4
12,-20,59,21,-25,-35,37,-16,-64,-16,18,16,-25,-37,-11,91,-38,-32,29,242,-5
4,-28,50,11,-29,-41,27,-25,-63,-19,13,14,-29,-38,-11,90,-47,-33,27,231,-5
2,-30,46,7,-30,-42,24,-29,-61,-20,12,15,-29,-36,-8,91,-50,-33,29,223,-4
7,-25,48,7,-26,-37,27,-26,-53,-16,15,18,-22,-32,-2,95,-42,-29,33,219,-2
13,-18,53,8,-21,-32,30,-20,-43,-8,20,21,-11,-26,3,97,-29,-21,37,216,-1
15,-17,55,5,-17,-31,29,-15,-33,-1,24,23,-1,-21,7,97,-19,-13,40,211,-2
17,-17,55,1,-14,-32,26,-13,-26,4,26,24,6,-16,9,95,-15,-5,44,201,-5
22,-14,57,3,-11,-30,27,-12,-22,7,28,25,13,-12,11,95,-14,2,51,187,-7
31,-6,61,10,-5,-24,33,-9,-19,8,32,27,19,-6,14,97,-11,8,60,169,-9
40,2,67,19,0,-17,39,-5,-16,10,37,30,25,0,18,98,-7,15,68,145,-9
46,9,70,26,3,-14,42,-1,-13,11,41,33,30,3,19,99,-3,21,72,115,-8
47,11,70,28,5,-14,41,0,-12,11,43,35,34,5,18,99,-1,26,71,79,-6
44,10,68,27,4,-17,37,2,-11,10,44,36,35,5,16,98,-1,30,65,42,-4
41,8,65,24,3,-19,33,3,-11,9,45,37,35,5,15,99,-2,33,59,7,-3
38,7,62,22,2,-21,30,4,-10,8,46,39,33,6,15,101,-5,34,54,-25,-3
37,7,60,23,1,-21,28,3,-10,6,47,42,31,8,18,103,-10,34,52,-52,-3
37,9,60,26,1,-19,30,2,-10,3,48,45,30,10,21,106,-14,33,52,-75,-3
39,14,62,29,2,-16,32,2,-10,0,50,47,29,13,24,108,-17,32,55,-91,-1
39,17,63,30,4,-13,32,3,-8,1,51,48,30,14,25,108,-17,33,55,-103,0
35,15,63,26,6,-14,29,5,-6,5,50,46,31,14,24,106,-16,35,53,-111,2
30,10,61,19,7,-17,23,7,-4,12,47,43,31,13,20,103,-15,36,47,-118,3
26,5,58,12,8,-20,17,9,-1,19,43,40,31,13,18,101,-15,37,42,-121,2
26,4,59,10,10,-19,16,13,0,25,41,38,30,14,18,100,-13,38,39,-122,0
33,9,63,14,13,-14,21,18,3,28,42,39,29,18,21,101,-7,38,40,-121,-2
43,18,68,21,17,-5,31,23,6,30,44,41,30,23,27,104,0,37,44,-117,-4
52,26,72,28,20,3,41,27,9,31,46,43,32,27,32,106,8,38,46,-113,-5
58,31,74,32,22,8,47,29,11,31,47,43,33,28,35,104,15,40,46,-110,-5
59,29,71,30,22,8,47,27,11,30,45,41,33,26,33,99,18,41,43,-108,-5
55,22,66,24,20,4,42,22,10,29,40,35,31,21,28,90,16,42,37,-107,-4
49,14,59,17,17,-1,35,15,8,25,35,30,28,16,22,82,11,41,32,-108,-3
45,10,56,13,16,-4,31,10,6,20,32,27,26,13,18,78,7,39,27,-108,-1
45,12,56,14,16,-4,31,8,5,14,31,27,26,12,18,77,6,35,24,-108,0
46,16,58,17,17,-4,33,7,6,9,31,29,26,13,19,79,8,31,20,-109,0
46,19,60,21,18,-4,35,6,7,4,31,31,26,14,20,81,11,25,15,-110,1
48,21,61,24,18,-4,36,5,7,0,30,32,25,13,19,82,14,19,9,-110,3
51,24,64,29,19,-4,38,4,6,-3,31,30,23,11,15,83,17,13,5,-108,5
57,30,68,35,23,-2,40,4,6,-6,31,29,22,8,11,82,23,8,3,-102,6
63,35,73,40,27,-1,41,7,7,-8,33,28,22,5,5,80,29,5,1,-96,7
65,34,73,40,30,-5,35,7,9,-8,33,26,21,1,-2,73,33,3,-3,-91,6
58,24,66,31,29,-14,20,3,8,-10,29,21,18,-4,-12,62,30,2,-12,-91,2
48,11,55,18,25,-26,4,-3,6,-13,22,14,11,-11,-23,49,22,0,-22,-92,-1
39,0,46,9,22,-32,-6,-8,2,-17,16,9,3,-18,-31,38,14,-3,-29,-91,-4
35,-3,41,6,21,-32,-8,-10,-1,-20,11,6,-2,-22,-35,32,10,-6,-32,-89,-7
37,0,42,10,21,-24,0,-7,-5,-23,9,5,-6,-24,-35,31,10,-10,-29,-83,-7
44,9,47,19,24,-13,12,-3,-9,-26,9,7,-9,-23,-31,34,11,-13,-23,-76,-6
51,18,54,29,26,-1,26,2,-11,-28,11,10,-9,-21,-25,38,13,-16,-17,-70,-2
53,21,57,34,26,4,34,5,-11,-28,12,12,-9,-19,-20,40,13,-19,-15,-65,0
50,18,55,33,23,3,36,5,-10,-28,13,12,-8,-17,-18,39,12,-20,-17,-61,2
42,11,50,29,20,-2,33,3,-9,-27,13,12,-7,-16,-17,36,9,-20,-21,-54,2
35,3,44,24,17,-8,30,0,-9,-27,13,13,-6,-16,-18,33,8,-20,-25,-43,1
32,-1,40,23,15,-12,27,-2,-10,-29,13,15,-5,-15,-20,31,7,-19,-25,-27,0
32,-2,39,24,16,-13,27,-2,-11,-31,14,17,-5,-13,-20,32,8,-19,-21,-8,-3
35,0,41,26,17,-11,27,0,-13,-33,16,19,-4,-9,-18,34,10,-17,-14,11,-6
39,3,45,28,20,-8,27,2,-13,-32,18,21,-2,-4,-15,37,13,-13,-6,30,-9
42,7,48,27,22,-6,25,7,-10,-27,20,22,1,0,-11,40,17,-6,0,44,-12
42,8,49,22,24,-7,19,13,-5,-18,21,22,9,5,-7,41,22,3,4,54,-14
40,5,46,14,25,-10,12,16,0,-7,22,21,16,8,-6,40,26,14,7,57,-16
37,1,41,6,25,-13,4,18,5,3,23,20,23,10,-5,38,28,24,9,57,-17
36,2,39,2,26,-13,2,20,10,11,25,19,30,13,-3,37,32,31,14,53,-17
40,8,40,5,29,-9,5,23,15,18,29,21,38,16,0,37,37,38,20,44,-16
46,17,45,12,33,-1,12,29,20,23,34,24,45,20,3,38,43,43,27,31,-14
52,26,52,21,38,7,19,34,25,28,40,27,53,23,7,39,50,49,33,9,-12
56,33,58,28,42,13,24,38,31,34,45,30,60,26,10,40,55,55,37,-18,-9
55,32,58,29,44,14,22,38,36,39,48,32,65,26,10,37,57,61,36,-54,-6
47,23,51,22,43,6,13,31,37,43,47,29,65,23,5,30,50,65,32,-94,-4
38,13,42,14,41,-1,4,21,35,42,43,25,62,18,0,23,39,66,29,-132,-1
35,9,38,11,41,-3,2,15,30,38,40,22,59,15,-2,20,32,63,31,-164,1
36,12,38,13,43,-1,6,15,26,35,38,20,57,13,-1,20,30,61,37,-188,3
38,15,41,15,47,2,12,17,23,31,37,20,56,11,-1,22,30,58,43,-205,5
40,18,44,16,50,5,16,20,20,27,36,20,54,10,0,24,31,56,49,-218,5
41,19,46,15,52,7,18,21,18,23,35,22,52,11,3,27,32,54,54,-226,5
40,18,46,13,52,6,17,19,16,19,35,24,50,12,5,30,30,52,57,-230,5
38,15,43,9,50,3,14,14,14,14,35,25,47,12,6,32,27,50,59,-223,5
38,14,40,8,47,3,12,9,13,7,35,27,44,13,8,34,23,47,61,-194,5
40,15,40,9,46,4,13,7,14,1,36,27,43,15,9,36,24,44,63,-127,5
42,18,41,10,46,4,13,9,18,-2,38,27,44,15,9,36,28,40,62,-5,2
41,17,39,8,44,1,10,12,22,-4,36,23,44,13,7,33,32,37,59,183,-2
36,14,35,3,41,-3,5,12,22,-7,32,17,40,7,1,27,33,30,55,435,-11
34,12,32,0,39,-6,3,11,18,-12,24,10,32,1,-5,21,31,21,56,731,-23
35,15,33,3,39,-3,8,11,11,-19,18,5,22,-4,-10,19,28,10,64,1028,-33
41,22,38,12,39,5,19,12,2,-24,14,3,14,-8,-11,20,28,0,77,1266,-41
46,28,43,21,39,15,31,14,-4,-26,11,5,9,-9,-10,24,28,-9,92,1387,-43
45,29,47,28,35,21,39,15,-6,-23,10,7,8,-8,-9,29,26,-13,102,1351,-39
39,24,46,29,28,20,41,14,-5,-16,8,9,11,-7,-7,34,23,-14,105,1152,-30
27,13,42,26,19,15,39,11,-1,-6,6,9,14,-7,-6,37,16,-11,101,825,-17
15,3,36,22,8,8,35,5,4,3,4,8,17,-7,-6,39,8,-7,94,429,-4
6,-1,33,21,0,4,33,0,8,13,3,7,18,-7,-6,40,1,-4,87,34,7
2,-1,32,23,-6,3,35,-2,12,21,4,8,18,-6,-4,42,-4,-2,81,-300,17
2,2,34,27,-10,5,38,-5,14,27,6,9,18,-5,-3,44,-6,0,76,-545,23
3,6,35,30,-12,5,39,-6,16,32,9,10,18,-4,-1,45,-7,0,70,-695,27
2,5,34,29,-14,3,35,-8,18,38,10,11,18,-3,-1,43,-7,0,62,-767,28
-2,0,30,23,-16,-3,26,-11,18,44,8,8,17,-5,-2,39,-9,2,52,-784,29
-8,-7,24,15,-17,-12,14,-15,16,49,4,4,14,-8,-5,32,-13,3,41,-769,28
-12,-13,20,7,-17,-19,3,-18,13,52,0,0,10,-11,-8,26,-16,5,32,-739,27
-14,-16,18,2,-16,-22,-2,-19,8,53,-4,-4,6,-13,-9,22,-18,7,25,-704,24
-12,-15,19,2,-13,-22,-3,-18,4,53,-7,-7,3,-13,-9,20,-19,9,21,-667,21
-7,-10,23,6,-10,-18,0,-14,0,52,-6,-7,2,-10,-7,20,-16,12,20,-632,17
-1,-3,29,13,-6,-11,7,-9,0,52,-4,-6,4,-7,-3,23,-11,16,19,-597,13
5,4,35,20,-2,-4,15,-2,0,53,0,-4,8,-2,1,25,-4,22,19,-564,10
9,9,39,25,0,1,21,3,1,55,2,-1,12,1,4,27,1,27,18,-530,9
12,14,42,28,2,6,26,7,2,56,5,0,14,4,6,29,4,31,17,-496,8
14,17,43,30,3,11,30,11,3,56,7,0,14,5,5,30,5,32,16,-460,9
15,20,45,30,4,15,33,15,2,53,7,0,13,4,3,29,7,31,14,-423,9
16,22,45,28,4,18,34,18,2,50,5,0,11,2,0,28,8,28,11,-386,9
17,24,44,26,4,20,33,22,2,46,3,-2,10,0,-2,26,11,24,6,-351,7
19,25,43,24,4,21,31,24,2,42,1,-4,9,-4,-5,22,15,21,1,-318,6
21,25,41,21,4,21,28,24,2,37,-1,-5,6,-7,-8,18,18,19,-3,-289,4
23,24,39,19,5,21,24,22,3,32,-3,-6,2,-10,-10,13,17,17,-8,-262,3
25,23,38,18,6,20,22,18,3,26,-5,-7,-3,-12,-13,9,14,15,-11,-237,3
27,23,38,19,7,20,21,14,4,21,-5,-6,-7,-13,-14,7,11,13,-15,-211,4
28,23,38,21,9,20,21,13,6,17,-3,-5,-10,-14,-14,5,11,11,-19,-184,4
27,21,36,21,9,17,19,13,10,16,-1,-4,-9,-14,-13,5,13,11,-26,-156,3
22,16,33,19,7,13,16,12,15,18,0,-2,-6,-14,-11,6,16,12,-34,-129,1
15,11,28,15,4,8,13,11,19,22,1,0,-3,-13,-9,8,17,13,-41,-104,0
11,7,26,13,1,6,14,9,21,25,2,1,-1,-12,-7,11,16,14,-44,-80,-1
11,9,27,16,0,9,20,8,19,25,2,3,-1,-10,-3,16,13,12,-40,-58,-1
16,15,32,23,-1,17,30,9,16,22,4,5,-3,-8,1,23,10,8,-32,-35,0
21,21,38,30,-1,25,40,11,11,18,6,7,-6,-6,7,30,8,2,-24,-13,0
23,23,41,34,-2,30,45,14,6,15,7,7,-8,-5,11,35,6,-2,-20,9,0
20,19,39,32,-4,28,42,15,2,13,8,7,-11,-4,13,37,3,-6,-20,32,0
11,9,32,24,-8,21,33,13,-1,13,8,7,-13,-5,13,36,-2,-10,-23,55,-1
1,-1,23,15,-12,12,23,9,-5,13,7,8,-15,-6,12,34,-10,-12,-28,79,-2
-5,-9,16,10,-16,6,18,5,-9,13,7,10,-17,-5,12,33,-18,-14,-29,102,-1
-7,-10,12,10,-17,6,19,2,-12,13,9,15,-19,-4,15,34,-23,-15,-27,124,-1
-4,-7,11,14,-17,10,24,1,-15,11,11,20,-19,-1,20,36,-26,-17,-22,144,0
-1,-3,11,19,-17,16,29,1,-17,10,12,23,-18,0,24,38,-26,-17,-17,160,0
0,-3,10,20,-17,18,31,2,-18,9,12,24,-15,2,26,38,-26,-16,-13,171,0
-1,-8,7,16,-19,17,26,1,-18,10,9,22,-13,3,25,36,-26,-14,-12,180,-1
-7,-16,3,8,-21,12,18,0,-18,11,5,17,-11,1,21,32,-28,-11,-13,189,-2
-12,-24,0,1,-24,7,11,0,-18,11,1,13,-9,1,19,28,-28,-8,-15,197,-3
-13,-26,0,-2,-25,6,9,0,-17,10,0,12,-6,2,19,27,-27,-6,-15,208,-2
-9,-22,1,0,-25,8,13,3,-15,7,4,14,-2,6,23,30,-22,-4,-13,221,-1
-3,-14,5,4,-23,14,21,8,-12,4,9,18,2,12,29,34,-15,-2,-11,235,-1
1,-7,7,9,-22,18,28,13,-11,1,14,21,7,15,32,38,-10,-1,-10,246,-1
3,-4,6,11,-21,20,32,14,-10,0,15,22,9,17,32,39,-7,-1,-12,254,-2
0,-6,2,9,-22,17,31,12,-11,-2,12,19,8,14,28,37,-9,-2,-15,256,-4
-6,-12,-3,4,-24,12,26,6,-14,-4,6,14,3,9,20,32,-15,-4,-19,254,-6
-12,-16,-9,2,-26,8,23,1,-17,-5,-1,8,-1,3,12,27,-21,-7,-22,249,-6
-14,-18,-11,3,-26,7,24,0,-19,-5,-6,4,-5,0,8,26,-24,-11,-23,244,-6
-14,-18,-11,7,-25,8,27,0,-19,-5,-10,1,-6,-2,6,26,-24,-13,-23,238,-4
-13,-17,-10,11,-24,10,32,1,-19,-3,-12,0,-6,-3,6,29,-22,-14,-23,231,-2
-13,-18,-10,13,-24,10,34,2,-19,-1,-12,-1,-4,-3,7,31,-20,-14,-23,218,0
-14,-22,-12,11,-25,8,32,2,-20,0,-12,-2,-5,-4,6,31,-21,-13,-23,199,1
-17,-27,-16,7,-27,3,27,0,-22,2,-13,-3,-7,-6,4,29,-25,-13,-24,172,3
-19,-32,-19,3,-28,-1,20,-3,-25,2,-13,-5,-10,-7,1,25,-29,-13,-25,137,4
-19,-35,-20,1,-29,-5,15,-6,-27,1,-13,-5,-12,-6,0,21,-32,-14,-25,99,4
-18,-36,-19,0,-29,-8,12,-6,-26,1,-11,-3,-13,-4,1,19,-31,-15,-27,58,3
-17,-35,-16,0,-28,-10,10,-4,-22,1,-9,0,-10,-1,3,18,-26,-15,-29,19,0
-17,-35,-14,-2,-28,-13,9,-2,-17,2,-6,4,-5,3,7,19,-19,-13,-33,-16,-1
-18,-35,-12,-4,-27,-15,8,-1,-12,3,-2,8,-1,7,11,21,-14,-12,-36,-49,-4
-18,-33,-9,-5,-25,-14,9,0,-9,2,0,13,0,10,14,23,-10,-11,-37,-78,-6
-14,-29,-4,-3,-21,-10,13,0,-9,-1,0,17,0,12,16,26,-8,-12,-36,-102,-6
-7,-21,1,2,-17,-2,20,2,-11,-6,1,20,-1,12,18,28,-6,-14,-31,-121,-4
0,-13,8,11,-13,6,29,4,-14,-12,2,22,-3,12,20,30,-3,-16,-27,-133,0
6,-6,14,18,-9,13,35,8,-16,-15,2,22,-5,10,19,30,0,-18,-25,-142,3
7,-4,16,22,-8,16,37,11,-19,-15,1,20,-7,6,17,28,3,-20,-27,-147,6
5,-6,14,23,-8,15,35,13,-21,-14,0,17,-10,2,12,25,4,-21,-32,-149,8
0,-9,12,22,-10,12,32,13,-23,-11,-1,13,-14,-3,7,22,2,-22,-38,-147,8
-4,-13,9,20,-11,8,28,12,-25,-8,-3,10,-17,-8,2,20,1,-23,-44,-143,7
-4,-12,11,20,-11,8,29,12,-25,-4,-3,8,-19,-12,0,20,2,-23,-48,-135,5
-1,-8,15,24,-8,12,32,15,-23,0,-2,9,-18,-14,0,21,7,-22,-50,-125,2
0,-7,17,24,-7,13,32,16,-19,4,0,10,-14,-14,1,21,12,-18,-54,-115,0
-3,-13,12,18,-8,6,23,11,-15,8,0,9,-12,-14,1,18,12,-14,-61,-110,-4
-7,-21,3,10,-10,-2,13,3,-14,8,-1,7,-13,-13,0,13,8,-12,-68,-106,-6
-5,-24,-1,7,-10,-7,7,-4,-13,4,-1,6,-13,-10,0,10,4,-12,-70,-100,-9
0,-23,-3,9,-8,-8,7,-7,-11,1,0,7,-13,-5,2,10,2,-13,-71,-92,-10
8,-18,0,13,-5,-6,10,-7,-8,-1,1,10,-11,1,7,13,5,-13,-71,-84,-12
19,-9,6,20,0,0,17,-1,-2,-1,5,14,-7,7,12,17,13,-12,-70,-75,-13
31,0,14,27,5,8,25,6,3,1,10,20,-2,14,18,23,24,-8,-68,-68,-14
40,5,20,30,9,13,29,12,10,5,14,23,3,18,23,28,34,-2,-66,-64,-14
44,7,20,28,11,13,28,13,15,8,17,24,6,19,24,29,38,2,-66,-64,-14
47,7,18,24,11,11,25,11,18,9,18,22,7,19,22,27,36,6,-63,-67,-13
51,8,16,22,10,9,21,7,19,9,19,19,6,18,21,26,33,9,-60,-71,-12
56,11,15,20,9,8,19,4,22,11,21,18,6,18,21,25,32,12,-56,-74,-9
59,13,14,19,7,6,16,2,25,15,25,18,8,20,23,25,32,17,-54,-75,-6
61,13,11,15,4,2,10,0,29,19,28,19,11,23,25,25,34,22,-55,-73,-4
60,12,8,11,1,-1,6,0,33,24,31,21,14,26,27,27,37,27,-56,-66,-4
60,11,7,9,0,-4,4,1,36,29,33,25,19,30,29,30,42,32,-55,-55,-4
59,10,6,6,-1,-6,2,3,38,32,34,28,22,31,29,34,45,35,-54,-43,-5
56,6,4,4,-3,-8,1,2,38,33,33,29,22,29,28,36,43,35,-53,-33,-7
53,2,3,1,-6,-10,0,-1,35,32,29,29,18,25,25,37,37,33,-53,-26,-7
51,0,3,0,-9,-11,-1,-5,31,30,25,28,14,21,23,37,29,29,-52,-19,-6
50,1,6,1,-11,-10,0,-6,28,28,22,27,12,19,21,37,25,24,-53,-8,-5
47,1,8,1,-12,-9,-1,-5,27,28,21,27,12,18,20,37,24,21,-56,6,-3
43,-1,9,-1,-14,-10,-4,-3,27,30,22,27,14,18,19,36,25,20,-62,27,-2
36,-6,7,-6,-16,-13,-10,-3,28,31,22,28,16,18,16,33,24,19,-67,53,-2
31,-10,5,-9,-17,-14,-13,-4,26,31,23,30,17,18,14,30,21,17,-70,83,-5
30,-10,6,-8,-16,-11,-11,-4,23,29,24,33,15,20,14,29,17,14,-68,113,-8
34,-4,9,-2,-15,-4,-4,-4,20,26,26,36,13,22,16,30,14,10,-63,140,-11
38,1,12,3,-14,1,2,-3,17,22,30,39,12,24,18,31,13,7,-59,161,-13
39,4,14,6,-14,5,6,-2,17,19,33,40,13,25,18,30,14,4,-56,173,-14
35,2,13,6,-15,4,5,-1,17,18,34,38,15,24,17,27,15,3,-56,174,-13
29,-3,9,1,-16,0,1,-2,19,17,34,33,16,21,13,21,17,3,-58,163,-12
24,-9,5,-4,-17,-5,-3,-3,20,15,31,28,16,18,9,15,17,3,-58,143,-9
22,-11,5,-7,-15,-7,-5,-3,19,11,29,25,15,14,6,12,17,2,-55,116,-7
27,-6,8,-5,-11,-4,-2,-2,18,5,26,23,13,12,5,12,19,0,-48,85,-4
36,3,14,0,-5,1,3,0,16,0,25,23,10,12,6,14,22,-3,-40,52,-2
45,14,20,5,0,6,10,1,16,-4,25,23,8,11,6,18,27,-6,-33,17,0
51,20,22,7,4,8,12,2,17,-5,24,22,7,10,4,21,32,-7,-30,-17,1
51,20,18,3,7,5,8,1,19,-3,22,19,6,8,0,21,35,-6,-32,-53,2
49,15,11,-4,8,-1,1,-1,23,-1,20,16,6,5,-5,19,38,-3,-37,-87,2
48,10,4,-11,10,-8,-5,-4,26,0,18,14,7,2,-10,18,40,0,-41,-116,2
52,9,2,-13,13,-11,-8,-5,31,0,19,16,10,1,-10,19,47,2,-43,-137,2
62,14,6,-9,18,-8,-5,-1,37,0,23,21,15,3,-5,22,58,5,-41,-148,1
76,23,15,0,25,0,0,5,45,2,30,27,23,7,2,26,73,8,-37,-151,0
90,31,24,7,31,7,7,14,53,4,35,32,30,12,9,29,87,11,-31,-150,0
102,36,30,12,36,14,11,22,59,7,38,33,35,15,13,29,99,15,-24,-145,-2
109,36,31,12,39,16,9,27,64,10,37,31,36,17,13,25,105,18,-17,-131,-3
112,33,27,7,42,16,5,29,66,10,33,25,33,17,11,19,108,22,-9,-94,-5
115,28,23,2,45,16,1,31,66,8,28,18,30,17,8,13,110,25,1,-13,-7
120,27,20,-1,48,18,0,33,67,4,25,13,28,17,7,8,114,27,16,129,-11
126,29,19,-2,52,21,0,37,67,0,24,8,28,18,7,3,121,28,31,343,-17
131,31,19,-2,56,24,1,41,68,-3,24,5,29,19,6,0,130,27,45,618,-27
134,31,19,-4,58,25,1,44,68,-8,23,1,29,17,4,-6,137,24,56,919,-38
133,26,17,-9,57,23,-1,43,66,-13,20,-2,27,14,0,-15,139,20,63,1193,-50
127,17,13,-15,54,17,-6,39,63,-16,15,-6,22,9,-7,-24,136,16,66,1380,-60
119,8,10,-20,49,12,-11,32,61,-17,12,-9,19,5,-12,-30,130,14,66,1431,-64
111,0,8,-22,43,8,-13,26,63,-15,11,-9,19,4,-14,-31,125,16,64,1324,-63
104,-3,8,-20,37,7,-12,20,68,-10,14,-5,23,7,-11,-26,122,21,58,1072,-57
96,-5,10,-15,32,7,-9,17,77,-2,21,1,31,12,-5,-17,122,29,50,719,-47
90,-5,12,-8,26,7,-4,15,87,4,28,8,40,17,0,-8,123,36,41,331,-37
83,-6,13,0,22,7,0,13,95,8,33,13,46,21,3,0,121,40,33,-30,-29
75,-8,13,7,18,7,5,10,98,8,35,16,46,20,3,5,117,40,27,-318,-25
69,-9,13,14,15,8,12,7,95,1,35,18,42,17,1,8,108,34,23,-513,-24
63,-9,14,21,11,10,19,2,88,-7,33,18,34,13,0,10,98,27,23,-621,-24
57,-8,15,27,7,14,26,-1,80,-18,31,18,26,8,-2,13,88,18,25,-661,-26
51,-7,15,31,3,16,30,-3,73,-25,30,18,21,5,-3,14,81,11,26,-660,-28
41,-10,14,31,-1,14,30,-5,68,-28,30,17,18,2,-5,13,76,5,25,-638,-31
29,-16,10,25,-6,7,26,-8,65,-28,30,15,17,0,-7,11,71,0,22,-607,-36
15,-25,5,17,-11,-1,18,-11,63,-26,29,13,17,-1,-10,6,66,-3,18,-574,-41
3,-32,0,9,-14,-9,11,-14,61,-24,28,10,15,-2,-14,1,60,-7,15,-540,-48
-3,-36,-2,3,-16,-13,6,-17,60,-24,27,9,12,-1,-16,-2,55,-11,14,-503,-55
-5,-37,-2,0,-15,-14,3,-18,59,-24,27,8,10,0,-17,-5,51,-14,15,-465,-62
-5,-38,-1,-1,-13,-13,1,-17,60,-23,29,9,11,4,-15,-7,51,-14,14,-426,-69
-5,-40,0,-3,-10,-14,-1,-14,64,-19,32,10,14,8,-13,-9,52,-12,12,-391,-73
-7,-46,0,-6,-8,-15,-5,-12,68,-13,34,10,19,12,-10,-10,53,-7,7,-359,-77
-12,-53,-2,-11,-6,-18,-10,-9,72,-7,36,10,24,15,-7,-11,54,-1,1,-331,-78
-16,-58,-4,-15,-3,-18,-13,-6,73,-2,37,10,28,18,-3,-11,53,4,-3,-306,-77
-17,-57,-3,-13,0,-14,-8,-1,72,1,38,11,30,22,1,-9,53,8,-4,-281,-74
-14,-48,2,-6,6,-3,2,6,70,3,41,15,33,27,8,-4,55,11,0,-252,-71
-7,-34,11,5,13,10,18,15,67,3,45,19,35,32,15,1,58,14,3,-219,-67
-3,-22,19,16,20,23,33,24,65,3,48,24,38,35,20,6,62,15,6,-185,-64
-3,-15,23,23,23,30,42,29,61,2,47,25,38,35,21,7,63,15,4,-153,-64
-8,-14,23,24,24,31,44,30,56,0,41,22,35,31,18,4,60,14,-1,-127,-64
-16,-18,19,22,23,29,41,28,48,-4,31,16,27,24,10,-2,54,10,-11,-107,-65
-25,-22,15,18,22,26,36,25,38,-9,20,9,17,17,3,-8,45,6,-20,-92,-65
-30,-23,15,17,20,26,33,24,28,-15,10,3,8,12,-1,-12,37,0,-29,-80,-64
-31,-18,17,19,20,28,32,25,19,-21,3,0,3,10,-3,-13,31,-4,-35,-67,-61
-29,-11,22,22,19,32,33,27,10,-26,0,-2,0,8,-4,-13,29,-8,-41,-52,-56
-28,-5,25,24,19,34,31,27,1,-31,-4,-5,0,6,-5,-14,27,-10,-49,-33,-52
-30,-4,24,21,17,31,25,24,-6,-35,-8,-10,-1,0,-10,-17,24,-12,-60,-13,-50
-34,-7,19,14,13,23,16,17,-16,-39,-14,-16,-5,-7,-18,-23,17,-14,-72,8,-48
-40,-14,11,5,9,13,7,8,-25,-41,-19,-22,-10,-16,-28,-28,8,-15,-86,31,-47
-45,-19,4,-2,4,3,1,0,-34,-42,-23,-26,-15,-23,-37,-31,0,-15,-99,55,-45
-48,-21,0,-5,0,-2,0,-4,-42,-43,-24,-26,-19,-27,-41,-30,-6,-15,-112,78,-40
-48,-17,-1,-5,-1,-4,2,-5,-48,-42,-23,-24,-19,-27,-42,-26,-9,-14,-123,99,-34
-46,-11,0,-2,-3,-4,6,-4,-53,-40,-22,-21,-19,-25,-40,-22,-10,-13,-133,118,-26
-44,-3,3,2,-4,-1,11,-1,-59,-38,-21,-18,-18,-23,-36,-19,-12,-12,-139,135,-17
-44,2,5,5,-5,-1,13,1,-63,-35,-20,-17,-17,-20,-32,-18,-13,-10,-144,150,-10
-49,0,2,0,-10,-6,6,0,-67,-31,-23,-20,-17,-21,-31,-22,-19,-9,-149,163,-4
-59,-6,-5,-9,-16,-15,-5,-6,-74,-29,-28,-27,-22,-25,-33,-29,-33,-10,-151,174,0
-65,-10,-10,-15,-21,-20,-14,-12,-81,-30,-34,-34,-28,-31,-34,-35,-47,-13,-146,187,4
-65,-7,-10,-14,-23,-18,-15,-13,-87,-32,-36,-39,-33,-36,-33,-37,-55,-17,-136,203,8
-60,0,-5,-8,-20,-11,-11,-9,-91,-34,-38,-41,-36,-40,-32,-36,-57,-20,-122,218,12
-54,7,0,0,-17,-3,-4,-4,-95,-36,-39,-42,-40,-45,-32,-35,-57,-24,-108,231,16
-48,15,6,7,-13,4,3,0,-98,-41,-40,-42,-44,-48,-33,-34,-58,-28,-94,241,19
-46,20,9,11,-11,8,8,1,-102,-46,-42,-40,-48,-51,-34,-34,-61,-33,-81,247,23
-48,23,10,13,-11,9,11,0,-107,-51,-44,-39,-52,-53,-36,-35,-66,-38,-70,251,26
-50,25,11,13,-12,9,12,-2,-112,-57,-47,-36,-56,-54,-38,-34,-72,-43,-58,255,30
-50,29,13,16,-13,10,15,-4,-117,-61,-48,-33,-58,-54,-38,-31,-78,-48,-42,259,34
-50,33,16,18,-12,11,16,-5,-120,-61,-48,-30,-57,-53,-37,-27,-81,-51,-24,263,38
-52,34,17,17,-13,7,11,-7,-122,-58,-48,-30,-54,-53,-38,-25,-84,-50,-7,264,41
-58,27,13,10,-16,-1,0,-11,-124,-54,-50,-35,-53,-55,-41,-27,-89,-49,5,260,44
-66,18,5,1,-20,-12,-14,-17,-128,-52,-53,-41,-54,-58,-46,-31,-98,-50,17,249,47
-71,13,-1,-4,-23,-19,-25,-23,-131,-53,-54,-46,-56,-60,-49,-33,-105,-51,28,235,50
-69,16,-2,-3,-23,-20,-27,-23,-133,-54,-51,-47,-55,-58,-47,-30,-106,-51,38,219,54
-64,24,0,1,-22,-16,-24,-20,-133,-54,-45,-43,-52,-54,-41,-23,-102,-50,45,199,58
-61,30,0,5,-22,-13,-21,-16,-132,-51,-40,-38,-47,-49,-35,-16,-99,-48,45,173,62
-61,30,-2,4,-24,-13,-22,-16,-131,-46,-38,-34,-44,-45,-29,-9,-99,-45,38,139,65
-65,26,-8,0,-27,-17,-26,-18,-131,-41,-38,-33,-44,-43,-25,-5,-103,-43,25,100,67
-69,20,-13,-7,-30,-21,-29,-21,-131,-36,-41,-33,-44,-41,-23,-3,-108,-40,10,57,68
-71,16,-16,-11,-31,-22,-29,-23,-131,-31,-44,-34,-43,-39,-20,-1,-113,-38,-3,14,69
-71,15,-16,-12,-30,-18,-25,-22,-131,-26,-46,-34,-41,-35,-16,0,-116,-35,-15,-24,70
-69,18,-14,-10,-28,-12,-19,-19,-129,-22,-46,-33,-37,-31,-11,3,-116,-32,-25,-58,72
-66,22,-10,-6,-25,-5,-12,-15,-127,-18,-44,-31,-32,-27,-5,6,-116,-28,-33,-85,75
-63,25,-6,-2,-22,0,-5,-10,-126,-13,-42,-29,-27,-23,0,10,-115,-23,-39,-105,78
-59,28,-1,1,-19,6,0,-4,-123,-9,-39,-27,-23,-19,7,15,-113,-19,-43,-118,81
-55,31,4,5,-16,11,7,1,-120,-4,-35,-24,-20,-15,13,21,-110,-15,-45,-125,82
-49,36,11,12,-12,17,16,8,-115,1,-31,-20,-16,-10,19,28,-105,-11,-44,-127,81
-43,38,16,16,-9,20,23,14,-108,7,-26,-15,-11,-3,24,35,-98,-8,-42,-127,77
-45,33,14,14,-10,15,21,14,-101,14,-23,-11,-6,0,26,40,-96,-5,-45,-127,72
-53,19,3,4,-16,1,9,7,-95,17,-25,-11,-4,1,23,40,-101,-3,-53,-129,65
-64,4,-10,-7,-23,-13,-6,-4,-94,16,-29,-14,-7,-1,16,37,-110,-4,-61,-132,61
-71,-6,-21,-16,-29,-25,-19,-15,-94,11,-33,-18,-12,-6,9,32,-120,-6,-67,-134,58
-71,-8,-25,-19,-32,-30,-26,-22,-96,4,-36,-21,-18,-11,3,27,-124,-8,-69,-133,59
-65,-1,-21,-15,-32,-26,-25,-22,-97,-3,-36,-23,-23,-15,0,24,-123,-10,-65,-129,61
-54,13,-10,-4,-29,-16,-18,-18,-96,-11,-33,-23,-25,-18,-1,22,-117,-12,-55,-120,64
-45,26,0,4,-26,-6,-11,-12,-93,-15,-28,-22,-25,-19,-2,19,-109,-14,-44,-109,64
-42,31,6,8,-25,-2,-10,-8,-89,-16,-27,-22,-25,-22,-5,12,-104,-15,-34,-97,62
-47,27,6,4,-26,-4,-16,-7,-86,-15,-28,-23,-26,-25,-11,1,-103,-16,-27,-85,58
-56,17,2,-3,-28,-10,-22,-8,-84,-13,-32,-27,-29,-29,-18,-11,-105,-18,-20,-75,52
-64,8,0,-9,-29,-13,-26,-7,-84,-12,-36,-30,-32,-32,-24,-21,-107,-19,-11,-67,46
-69,3,-1,-11,-30,-13,-25,-5,-84,-12,-39,-32,-36,-32,-27,-29,-108,-21,-1,-63,42
-71,1,-1,-9,-30,-9,-19,-4,-86,-15,-40,-33,-39,-30,-26,-31,-110,-25,9,-62,38
-70,2,-1,-4,-30,-5,-10,-3,-90,-20,-40,-33,-42,-27,-24,-30,-111,-30,18,-62,35
-69,2,-1,0,-31,-1,-1,-4,-93,-26,-39,-33,-46,-26,-20,-27,-111,-36,23,-62,33
-71,0,-3,1,-33,0,1,-7,-96,-32,-39,-33,-49,-27,-18,-23,-110,-42,23,-60,30
-76,-9,-8,-2,-36,-5,-1,-12,-99,-36,-41,-34,-54,-31,-19,-21,-111,-47,17,-58,26
-83,-21,-17,-10,-40,-13,-9,-19,-102,-40,-45,-37,-60,-37,-22,-19,-114,-51,7,-57,21
-90,-30,-24,-17,-44,-20,-17,-26,-104,-45,-48,-39,-66,-42,-24,-17,-116,-53,-2,-54,17
-90,-32,-25,-19,-45,-22,-19,-29,-105,-48,-47,-38,-68,-44,-24,-12,-116,-55,-8,-50,13
-85,-26,-20,-13,-44,-18,-12,-27,-103,-49,-44,-33,-66,-42,-20,-5,-110,-55,-11,-42,11
-77,-15,-10,-4,-42,-12,-1,-21,-98,-47,-37,-26,-60,-38,-15,2,-100,-53,-14,-33,10
-71,-7,-2,2,-41,-7,7,-15,-91,-44,-31,-20,-52,-33,-11,8,-90,-51,-18,-24,10
-68,-4,1,6,-42,-6,11,-12,-86,-41,-29,-17,-47,-31,-10,9,-85,-48,-25,-17,10
-69,-6,1,6,-45,-8,11,-13,-83,-40,-29,-19,-45,-31,-12,5,-84,-46,-34,-11,10
-69,-11,-1,6,-47,-11,8,-15,-82,-41,-32,-22,-46,-33,-15,0,-86,-43,-42,-5,9
-67,-14,-5,6,-48,-12,6,-17,-81,-42,-34,-25,-48,-35,-19,-4,-89,-39,-49,4,9
-63,-15,-9,7,-46,-12,7,-16,-78,-43,-35,-27,-48,-35,-21,-7,-90,-36,-55,20,8
-58,-13,-11,9,-42,-11,9,-14,-73,-42,-33,-26,-45,-34,-21,-7,-86,-32,-62,43,8
-53,-11,-13,10,-38,-10,12,-11,-66,-39,-31,-24,-40,-31,-20,-6,-80,-27,-68,70,8
-51,-10,-15,9,-34,-10,13,-9,-60,-36,-30,-22,-35,-28,-19,-4,-75,-23,-75,96,8
-51,-12,-18,5,-30,-12,10,-9,-54,-31,-29,-20,-31,-25,-18,-3,-74,-18,-81,118,8
-51,-15,-22,0,-26,-13,5,-10,-51,-25,-30,-19,-29,-22,-15,0,-75,-13,-83,134,7
-49,-17,-23,-1,-22,-12,1,-12,-47,-19,-29,-16,-27,-17,-11,3,-75,-7,-81,143,6
-44,-16,-22,-1,-16,-9,0,-11,-43,-13,-27,-13,-24,-12,-6,9,-73,0,-76,147,6
-37,-12,-20,0,-11,-6,-1,-8,-38,-6,-23,-9,-18,-6,0,15,-66,5,-69,146,6
-31,-8,-16,-1,-5,-5,-1,-3,-30,0,-17,-4,-9,0,6,19,-54,12,-65,140,5
-27,-4,-13,-3,-1,-5,-3,0,-22,6,-12,0,0,4,11,21,-42,17,-62,126,3
-25,-3,-11,-7,2,-8,-5,3,-15,9,-8,1,6,8,15,21,-32,20,-61,104,2
-24,-3,-10,-11,5,-11,-8,2,-10,9,-6,3,10,10,17,18,-27,21,-60,74,0
-22,-2,-8,-12,8,-13,-6,0,-7,6,-4,6,11,11,19,17,-25,19,-57,39,0
-18,0,-7,-11,10,-14,-1,-3,-4,3,-3,10,11,13,22,17,-25,17,-52,2,0
-14,2,-6,-8,12,-16,6,-5,0,2,-1,14,11,15,25,18,-23,15,-48,-32,0
-11,3,-7,-5,12,-20,15,-6,5,4,2,17,14,18,29,19,-20,15,-45,-62,0
-11,1,-10,-6,9,-27,20,-7,11,9,6,18,19,20,30,17,-17,17,-48,-88,0
-15,-5,-15,-10,3,-37,19,-9,18,16,9,16,22,20,29,12,-15,20,-54,-109,0
-21,-12,-20,-14,-4,-46,14,-13,21,22,11,12,23,19,25,5,-16,22,-62,-125,1
-24,-17,-22,-15,-11,-51,10,-17,22,24,11,9,21,16,21,0,-19,22,-70,-137,1
-24,-16,-19,-13,-15,-51,10,-19,19,20,11,8,15,12,16,-2,-22,19,-74,-143,2
-21,-12,-14,-8,-17,-46,14,-20,15,12,11,9,9,9,12,-1,-24,14,-77,-142,2
-18,-8,-8,-4,-18,-41,18,-20,10,4,10,9,3,6,8,0,-27,9,-81,-132,3
-19,-6,-5,-6,-19,-40,20,-20,6,-4,8,8,-2,2,3,-1,-29,3,-88,-104,3
-23,-9,-7,-12,-20,-42,17,-21,2,-11,5,5,-7,-1,-3,-4,-33,-2,-97,-45,1
-28,-14,-12,-22,-21,-47,9,-23,0,-18,0,0,-13,-7,-12,-11,-37,-7,-107,61,0
-32,-19,-18,-31,-20,-53,0,-26,-5,-25,-7,-6,-21,-15,-21,-18,-41,-13,-115,230,-3
-31,-18,-23,-34,-17,-55,-5,-28,-10,-34,-13,-11,-30,-21,-29,-24,-41,-19,-119,466,-6
-24,-13,-25,-32,-12,-53,-6,-28,-15,-44,-18,-13,-37,-26,-33,-27,-37,-25,-118,752,-10
-14,-4,-25,-26,-7,-49,-3,-25,-19,-51,-21,-14,-41,-29,-35,-27,-29,-30,-114,1045,-13
-4,2,-25,-20,-4,-44,-1,-23,-22,-55,-24,-14,-42,-31,-34,-27,-21,-34,-110,1286,-14
0,6,-27,-16,-4,-43,-1,-21,-24,-53,-26,-14,-41,-30,-32,-26,-17,-35,-109,1413,-12
-1,4,-31,-18,-8,-46,-7,-23,-24,-47,-27,-14,-38,-29,-29,-25,-17,-33,-110,1386,-7
-7,-2,-36,-23,-15,-52,-16,-28,-23,-37,-27,-14,-34,-27,-25,-25,-21,-29,-115,1194,0
-14,-8,-40,-29,-23,-57,-24,-33,-20,-26,-24,-11,-28,-21,-17,-22,-28,-23,-118,871,8
-18,-11,-40,-30,-28,-58,-28,-34,-16,-14,-17,-6,-20,-13,-6,-17,-32,-15,-118,477,17
-17,-9,-35,-28,-30,-55,-27,-32,-10,-2,-7,0,-10,-2,6,-10,-32,-6,-115,84,25
-15,-6,-30,-26,-29,-50,-24,-27,-3,8,1,5,0,7,18,-4,-29,3,-108,-251,31
-14,-5,-27,-25,-28,-45,-22,-24,1,15,6,8,6,15,26,-1,-26,10,-99,-496,35
-16,-9,-28,-29,-28,-44,-23,-23,4,19,8,7,9,20,30,0,-27,15,-89,-645,37
-21,-18,-35,-37,-30,-47,-27,-27,4,21,7,5,8,21,30,-2,-31,17,-76,-711,37
-27,-28,-44,-46,-34,-49,-33,-32,3,20,4,2,5,21,28,-4,-39,18,-60,-719,37
-32,-35,-52,-52,-38,-51,-36,-36,3,19,2,0,2,21,26,-5,-46,18,-39,-693,36
-35,-38,-58,-54,-41,-50,-35,-36,5,18,3,-1,2,23,26,-5,-48,18,-13,-651,34
-36,-37,-60,-53,-42,-47,-33,-33,9,20,5,-1,5,25,25,-5,-45,20,13,-603,32
-36,-34,-60,-52,-42,-46,-32,-30,15,24,8,-1,9,27,25,-6,-40,22,42,-556,30
-36,-31,-60,-51,-41,-46,-32,-27,20,27,10,-3,12,27,23,-8,-36,23,71,-512,27
-35,-29,-60,-51,-39,-46,-33,-27,23,30,11,-5,13,25,21,-12,-36,24,102,-473,24
-32,-24,-58,-49,-36,-43,-33,-27,23,30,12,-6,12,23,19,-15,-37,24,134,-438,22
-26,-17,-53,-44,-31,-38,-31,-27,22,29,14,-5,11,22,18,-16,-38,23,166,-405,20
-18,-7,-47,-38,-27,-31,-27,-25,21,28,16,-3,11,24,19,-16,-35,21,196,-375,20
-12,0,-41,-33,-22,-26,-26,-21,22,28,18,-1,12,26,21,-16,-31,21,220,-346,20
-10,2,-40,-31,-20,-26,-29,-18,23,29,18,0,14,27,22,-16,-25,21,235,-317,21
-12,0,-42,-33,-20,-30,-35,-18,25,30,17,0,14,27,22,-18,-22,22,242,-286,20
-16,-3,-46,-35,-21,-36,-41,-19,26,30,16,-1,13,27,22,-19,-21,23,244,-255,19
-19,-6,-49,-35,-21,-39,-44,-21,25,29,15,-1,11,28,22,-19,-22,23,245,-224,17
-19,-6,-48,-31,-21,-37,-40,-23,24,27,15,0,7,28,22,-18,-24,23,247,-195,15
-16,-3,-44,-24,-20,-31,-32,-23,21,23,16,2,5,30,24,-15,-24,21,250,-170,13
-12,0,-39,-16,-17,-24,-22,-21,20,20,17,4,3,30,26,-12,-21,19,251,-147,11
-9,2,-33,-10,-14,-17,-14,-17,21,19,17,4,3,29,27,-11,-16,18,248,-127,10
-8,0,-30,-10,-11,-13,-11,-13,23,20,15,1,2,26,25,-12,-10,17,239,-109,10
-9,-2,-28,-12,-8,-11,-13,-9,25,22,12,-3,1,21,22,-13,-5,17,224,-90,10
-9,-6,-26,-15,-6,-10,-14,-6,27,24,8,-8,0,17,18,-15,-2,18,206,-72,10
-7,-7,-23,-17,-3,-8,-15,-4,28,26,5,-12,0,13,14,-17,0,19,187,-52,10
-4,-8,-21,-18,0,-4,-14,-3,28,26,2,-16,-2,11,10,-18,1,20,169,-33,9
0,-6,-18,-15,1,0,-10,-3,26,23,0,-17,-4,9,8,-18,2,20,152,-12,8
5,-2,-16,-11,4,6,-6,-1,25,21,-1,-18,-5,8,8,-19,5,21,138,10,7
10,1,-14,-5,6,10,-2,1,25,20,-2,-19,-5,7,9,-19,10,22,124,35,6
13,3,-13,-1,8,12,-2,4,27,20,-2,-20,-3,6,10,-21,14,25,111,60,6
15,5,-14,0,9,12,-4,5,29,21,-3,-21,0,6,12,-23,18,28,96,82,5
15,6,-14,1,9,10,-7,7,31,22,-3,-21,4,6,13,-26,21,31,81,102,4
15,7,-13,1,9,8,-11,8,34,22,-2,-20,10,9,16,-28,24,34,66,120,2
15,7,-12,1,10,6,-15,9,38,21,-1,-16,16,12,18,-29,27,37,51,136,0
15,8,-9,1,12,4,-17,10,42,19,1,-11,22,15,20,-29,31,38,37,153,-1
15,10,-6,3,16,4,-16,13,44,16,4,-6,27,18,21,-28,35,38,25,171,-3
15,12,-3,4,20,5,-14,15,45,12,7,-2,29,19,20,-27,39,37,12,189,-5
14,12,-1,4,23,5,-11,14,44,6,8,0,28,17,17,-27,40,34,0,206,-8
13,10,0,4,24,6,-7,12,41,0,8,0,24,13,12,-27,37,29,-12,221,-11
11,8,0,6,24,8,-3,10,37,-6,7,0,18,9,8,-26,34,23,-24,234,-14
8,5,0,7,23,10,1,9,34,-11,6,1,14,5,5,-25,30,17,-37,245,-16
2,0,0,6,20,12,2,10,31,-14,5,3,11,3,3,-24,26,12,-47,254,-18
-4,-6,-2,3,16,12,2,11,29,-15,4,4,9,0,2,-23,21,8,-54,260,-18
-11,-12,-5,0,12,12,1,11,26,-16,4,4,7,-1,1,-23,13,3,-55,264,-16
-16,-16,-7,-1,8,13,2,11,21,-18,3,4,4,-3,1,-23,6,0,-48,268,-14
-16,-15,-7,0,7,16,8,12,15,-20,3,4,0,-3,3,-22,0,-6,-33,272,-12
-10,-8,-2,6,7,23,18,14,10,-22,4,4,-2,-3,6,-22,-2,-11,-11,277,-10
-3,1,3,14,9,31,28,16,8,-21,5,4,-4,-3,10,-22,-2,-15,14,281,-9
1,8,7,18,11,34,33,18,8,-18,6,3,-4,-3,12,-25,0,-17,38,282,-10
3,10,8,17,13,33,30,19,12,-12,5,0,-1,-3,11,-30,3,-16,58,276,-13
2,8,5,10,14,28,20,18,17,-5,3,-3,2,-4,9,-37,5,-11,75,264,-15
0,2,1,1,14,20,5,14,23,2,1,-7,6,-5,5,-44,6,-5,89,244,-15
-2,-2,-2,-6,14,13,-10,10,28,7,-1,-9,8,-6,1,-49,5,0,98,219,-14
-2,-4,-4,-11,14,9,-21,5,31,8,-2,-8,8,-7,-1,-53,3,2,106,190,-12
0,-3,-5,-13,15,8,-28,2,32,6,-4,-7,7,-7,-1,-53,2,2,109,158,-9
3,0,-5,-12,15,8,-31,0,31,4,-4,-5,7,-8,0,-51,3,0,106,125,-6
6,0,-7,-13,14,6,-33,0,31,3,-3,-3,8,-8,1,-47,6,0,94,91,-4
5,0,-10,-16,12,2,-36,0,31,4,-1,-2,11,-8,2,-43,10,3,73,55,-4
2,-4,-16,-21,8,-4,-40,-1,30,7,0,-2,14,-8,2,-39,12,7,44,18,-5
0,-9,-21,-26,4,-9,-43,-5,28,9,2,-2,17,-8,2,-36,12,12,13,-17,-6
0,-10,-23,-26,2,-11,-41,-8,25,10,5,0,18,-6,3,-31,12,15,-16,-51,-6
4,-4,-18,-21,3,-6,-32,-9,23,11,11,5,18,-3,7,-24,14,17,-43,-79,-6
11,3,-11,-12,5,2,-20,-6,21,11,16,11,19,1,12,-17,18,15,-66,-102,-4
16,10,-4,-4,6,11,-9,-2,21,11,19,15,18,4,17,-11,22,12,-87,-118,-3
16,12,-1,0,6,16,-3,0,21,12,18,16,16,4,19,-8,24,9,-107,-129,-1
13,9,-2,-1,5,18,-2,1,20,14,14,14,12,3,19,-9,22,6,-124,-136,0
6,1,-7,-5,1,17,-3,2,18,15,8,9,8,2,17,-12,16,3,-136,-139,0
0,-5,-12,-10,-1,17,-5,3,18,17,4,4,5,3,18,-16,11,3,-140,-139,1
-4,-8,-14,-11,-4,21,-3,5,19,19,3,3,6,7,22,-16,7,4,-137,-137,3
-7,-6,-14,-9,-5,26,0,8,24,22,6,6,12,16,30,-14,7,9,-127,-133,6
-8,-3,-13,-7,-7,32,2,11,30,26,12,11,20,26,39,-11,11,16,-115,-128,9
-9,0,-13,-6,-7,34,0,13,37,30,17,15,29,34,47,-10,16,23,-101,-123,11
-10,0,-15,-9,-8,30,-7,12,43,35,21,17,35,38,50,-13,21,29,-87,-118,12
-11,0,-19,-14,-8,23,-19,8,46,38,21,16,37,38,49,-18,23,34,-73,-114,13
-11,-2,-23,-20,-7,13,-34,4,47,41,19,14,36,37,44,-23,23,36,-58,-109,13
-7,-1,-23,-23,-5,6,-45,0,47,42,17,13,34,35,39,-27,23,37,-43,-102,13
-1,2,-20,-21,-1,2,-50,0,47,42,16,14,33,34,35,-28,25,36,-28,-92,15
5,8,-16,-16,2,1,-51,2,48,41,16,17,32,33,33,-26,28,35,-15,-78,16
11,14,-11,-11,6,1,-49,6,50,40,17,20,33,32,31,-22,31,34,-5,-64,17
15,18,-8,-5,9,1,-44,8,51,39,16,22,32,30,28,-19,33,31,1,-51,18
17,20,-8,-2,10,0,-38,9,49,37,12,21,30,25,25,-15,32,27,8,-41,17
18,20,-8,0,10,1,-29,7,44,33,7,19,26,21,21,-11,29,22,15,-33,17
18,20,-9,4,9,5,-17,4,37,28,2,17,21,16,18,-6,24,16,23,-28,18
18,20,-8,9,7,11,-2,1,27,22,0,15,15,13,16,-1,19,10,30,-24,20
17,19,-6,15,4,18,12,1,19,16,-2,11,9,10,14,3,16,4,36,-21,23
12,17,-6,18,0,24,24,2,13,12,-3,6,5,7,12,5,14,0,37,-19,26
4,11,-8,18,-3,25,30,3,10,9,-4,0,2,4,9,4,13,-1,36,-18,27
-6,5,-13,16,-7,23,31,2,8,6,-6,-6,0,1,5,1,10,-3,33,-16,26
-14,-1,-18,12,-10,19,28,0,7,5,-10,-12,-2,0,4,-1,5,-5,31,-13,24
-19,-5,-23,10,-12,16,22,-3,6,2,-14,-15,-5,-1,4,-4,0,-6,33,-9,21
-19,-5,-25,9,-12,15,16,-7,4,1,-17,-15,-6,0,7,-7,-4,-6,37,-3,19
-16,-3,-25,8,-9,15,9,-8,3,1,-18,-13,-5,3,12,-9,-6,-4,44,4,17
-11,-1,-23,5,-5,15,0,-6,4,4,-17,-12,-1,6,16,-13,-6,1,50,12,16
-8,-1,-23,-1,0,12,-10,-2,7,11,-14,-12,3,9,18,-18,-2,8,54,21,16
-7,-3,-23,-11,4,8,-25,1,12,19,-12,-14,10,12,19,-26,2,17,57,32,15
-5,-5,-22,-21,10,3,-38,6,17,27,-11,-16,16,15,19,-34,8,25,60,47,14
0,-2,-19,-26,16,3,-46,12,23,32,-10,-17,22,20,17,-40,15,31,65,65,13
10,5,-12,-24,23,7,-46,18,27,32,-9,-16,26,24,17,-45,24,34,72,87,10
23,18,-3,-16,31,14,-41,25,31,31,-7,-13,29,29,16,-47,34,34,80,110,8
35,30,2,-6,38,21,-33,30,33,29,-4,-9,30,31,15,-48,43,34,84,131,5
42,38,5,0,42,24,-27,33,35,28,-2,-6,31,31,12,-49,49,33,83,148,2
43,38,1,2,43,22,-26,33,34,28,-1,-5,29,28,8,-51,51,33,75,159,1
37,30,-6,0,40,15,-30,28,30,26,-3,-7,23,21,1,-53,48,31,62,161,1
29,21,-15,-6,35,8,-34,21,25,20,-8,-11,14,13,-6,-56,41,26,48,154,2
23,14,-20,-7,30,5,-32,15,17,10,-14,-13,3,4,-13,-56,33,18,37,137,5
21,13,-20,-2,27,8,-24,11,9,-2,-19,-14,-7,-3,-19,-54,27,8,29,111,8
22,15,-16,6,24,13,-11,9,2,-17,-24,-14,-19,-11,-25,-51,21,-3,25,77,10
22,17,-12,16,21,19,3,9,-4,-30,-29,-14,-30,-20,-31,-48,17,-15,20,39,11
19,15,-10,22,16,22,14,6,-11,-41,-35,-15,-42,-31,-38,-47,12,-26,13,0,11
12,9,-13,23,10,20,19,1,-17,-49,-42,-19,-52,-42,-45,-47,5,-36,5,-36,9
3,0,-18,19,3,15,17,-5,-22,-54,-49,-25,-61,-53,-52,-48,-2,-44,-3,-69,7
-3,-8,-22,14,-1,9,14,-13,-25,-57,-55,-30,-66,-61,-55,-49,-8,-50,-8,-94,4
-5,-10,-23,12,-5,6,10,-17,-27,-57,-56,-31,-67,-62,-54,-47,-9,-55,-9,-112,1
-3,-7,-20,12,-5,6,8,-16,-25,-54,-54,-29,-62,-58,-48,-45,-4,-55,-6,-123,0
1,0,-15,14,-4,7,6,-12,-23,-50,-48,-25,-54,-50,-40,-44,4,-54,0,-130,0
6,6,-12,14,-3,7,1,-7,-20,-45,-42,-22,-45,-41,-33,-46,14,-50,7,-133,1
9,10,-11,13,-3,6,-6,-3,-18,-42,-37,-20,-38,-34,-29,-52,21,-46,14,-133,2
12,13,-12,10,-2,3,-15,-3,-17,-41,-35,-20,-35,-30,-29,-61,24,-44,21,-122,1
14,14,-14,7,0,1,-23,-4,-17,-43,-33,-21,-34,-29,-32,-71,25,-42,27,-88,0
17,15,-16,5,2,0,-30,-7,-15,-45,-32,-22,-32,-28,-35,-79,24,-41,32,-12,-4
19,16,-17,3,6,-2,-35,-9,-13,-48,-30,-22,-30,-29,-37,-85,25,-41,35,119,-10
20,15,-19,0,9,-5,-39,-10,-12,-49,-29,-23,-28,-31,-39,-89,28,-42,35,316,-17
19,12,-21,-4,12,-8,-43,-11,-14,-51,-30,-26,-29,-36,-43,-93,30,-44,34,572,-25
17,8,-24,-8,14,-11,-46,-11,-18,-53,-32,-31,-33,-42,-48,-96,31,-47,31,859,-33
13,5,-25,-9,16,-12,-45,-10,-23,-54,-35,-37,-40,-49,-54,-97,31,-51,27,1126,-39
10,3,-23,-6,17,-8,-37,-8,-27,-54,-37,-41,-46,-55,-57,-94,30,-55,24,1313,-43
8,6,-17,2,17,-1,-23,-5,-26,-50,-37,-40,-48,-57,-56,-84,30,-57,21,1367,-42
3,7,-10,12,15,6,-6,-3,-20,-41,-32,-34,-44,-55,-49,-68,28,-55,14,1261,-38
-7,2,-7,18,8,7,4,-6,-10,-29,-26,-25,-37,-51,-40,-49,21,-50,0,1001,-29
-23,-8,-10,18,-2,4,10,-14,-1,-17,-20,-17,-31,-47,-32,-30,7,-44,-16,636,-20
-37,-18,-14,17,-13,0,15,-23,3,-8,-16,-9,-27,-42,-24,-11,-8,-39,-33,235,-9
-46,-24,-17,17,-22,-1,21,-30,5,-3,-11,-2,-24,-37,-16,6,-21,-34,-47,-129,0
-48,-23,-16,19,-27,1,29,-32,6,0,-6,4,-21,-31,-9,21,-27,-29,-55,-410,7
-43,-14,-12,25,-28,9,39,-28,7,1,0,11,-16,-22,0,33,-26,-25,-57,-591,11
-32,0,-5,32,-25,18,49,-20,9,4,7,19,-8,-11,9,43,-19,-20,-55,-680,13
-21,11,0,35,-22,24,52,-13,13,7,15,26,0,-1,19,47,-11,-15,-54,-703,13
-16,16,0,32,-19,23,46,-10,18,12,21,29,8,6,25,44,-7,-10,-53,-687,12
-15,14,-5,22,-17,16,32,-12,23,18,23,29,13,11,28,34,-9,-6,-53,-652,9
-17,8,-12,8,-16,8,14,-14,26,25,23,25,16,14,29,20,-12,-1,-52,-610,6
-18,4,-16,-3,-14,0,-2,-15,29,31,23,22,18,18,31,5,-14,2,-46,-568,3
-16,4,-17,-11,-11,-3,-14,-13,31,37,25,20,21,23,34,-7,-13,7,-35,-527,1
-12,6,-16,-15,-7,-4,-22,-10,33,39,27,20,23,29,37,-17,-10,10,-20,-490,0
-5,12,-12,-15,-3,-4,-26,-7,34,39,29,21,26,34,41,-23,-4,11,-3,-455,-2
1,18,-9,-12,0,-2,-29,-4,35,36,31,21,27,38,44,-26,3,12,14,-423,-3
6,20,-7,-11,2,0,-34,-2,35,32,30,20,26,37,43,-28,9,13,30,-393,-4
6,17,-9,-13,3,0,-45,-3,34,28,26,17,22,32,38,-31,11,13,42,-366,-5
2,8,-13,-17,1,0,-59,-7,32,24,19,12,16,24,30,-34,8,12,51,-341,-5
-2,0,-16,-21,0,2,-70,-9,29,19,11,6,9,16,21,-36,3,10,58,-318,-5
-4,-1,-15,-18,2,10,-71,-8,25,13,5,3,4,10,14,-35,1,6,65,-293,-5
-2,3,-10,-11,5,21,-63,-1,23,9,3,3,3,6,10,-31,3,3,73,-265,-4
0,10,-3,-1,9,33,-49,6,23,5,1,4,3,3,7,-26,8,0,79,-235,-4
2,16,2,7,12,42,-34,12,22,1,0,4,3,0,4,-20,13,-1,83,-204,-5
1,19,4,14,12,47,-21,16,20,-2,-3,3,1,-4,0,-15,15,-4,86,-174,-7
-1,18,4,17,10,48,-10,14,16,-6,-7,1,-3,-10,-3,-10,12,-6,87,-145,-9
-5,15,2,19,7,48,-3,10,12,-10,-12,-1,-9,-14,-7,-5,5,-9,88,-119,-11
-7,12,1,21,5,47,3,5,7,-14,-16,-2,-14,-17,-10,0,0,-12,89,-94,-12
-8,11,1,23,3,46,9,3,5,-16,-18,-2,-16,-18,-11,4,-4,-14,88,-69,-13
-9,8,0,22,3,42,11,2,4,-18,-18,-2,-16,-19,-12,7,-4,-15,86,-44,-14
-10,5,-1,18,3,37,8,1,4,-17,-17,-2,-15,-19,-12,7,-2,-14,81,-20,-14
-12,0,-4,11,3,28,0,0,3,-16,-17,-4,-13,-20,-14,3,-1,-11,75,0,-14
-14,-5,-8,2,3,19,-10,-3,2,-15,-16,-7,-13,-20,-15,-2,-2,-8,71,19,-14
-14,-8,-11,-7,3,11,-22,-9,1,-14,-14,-10,-12,-19,-16,-9,-6,-5,71,36,-14
-12,-9,-13,-16,4,5,-31,-14,0,-13,-13,-13,-11,-16,-15,-18,-9,-2,74,52,-13
-9,-6,-14,-23,6,0,-40,-18,0,-12,-11,-15,-8,-11,-12,-27,-10,0,80,68,-11
-7,-4,-14,-29,8,-4,-47,-19,2,-10,-9,-17,-4,-5,-10,-38,-9,3,86,85,-10
-5,-2,-15,-36,9,-9,-54,-18,5,-6,-8,-18,0,1,-7,-48,-4,6,89,103,-9
-4,0,-17,-41,11,-13,-61,-16,10,-1,-6,-18,6,6,-5,-57,1,12,91,122,-8
-2,1,-18,-44,14,-14,-66,-11,15,5,-4,-17,11,11,-3,-63,8,18,92,141,-8
2,6,-14,-42,19,-10,-66,-4,20,11,0,-14,15,15,0,-65,16,23,96,160,-8
11,15,-7,-35,25,0,-61,4,25,15,5,-8,19,20,5,-61,24,28,102,177,-8
20,24,1,-27,33,11,-52,13,29,19,11,-1,22,24,10,-53,31,30,109,191,-8
27,32,9,-19,38,21,-42,22,32,21,17,4,23,27,13,-44,37,30,116,202,-10
30,34,13,-14,39,27,-32,26,33,21,20,7,22,27,13,-35,38,27,119,208,-11
27,30,12,-14,36,28,-26,26,31,18,20,7,18,23,9,-30,35,22,117,211,-12
19,20,7,-16,27,24,-23,20,26,13,16,5,10,14,2,-26,28,15,109,210,-13
9,9,0,-19,15,18,-20,10,20,5,10,2,0,3,-6,-23,18,7,98,208,-13
0,0,-5,-17,3,14,-14,0,12,-5,7,0,-10,-6,-13,-18,7,-3,87,205,-12
-5,-4,-7,-12,-6,12,-5,-8,4,-18,5,1,-19,-14,-18,-11,-1,-14,77,205,-10
-9,-5,-7,-4,-14,12,6,-16,-2,-32,6,5,-25,-20,-21,-1,-8,-25,67,207,-8
-12,-5,-6,1,-19,10,16,-21,-7,-44,8,9,-29,-23,-23,7,-15,-36,57,210,-8
-18,-7,-6,3,-23,5,22,-26,-11,-52,9,12,-32,-26,-25,14,-22,-44,47,212,-9
-26,-13,-9,-1,-27,-2,20,-33,-14,-57,9,12,-35,-29,-27,17,-30,-49,36,210,-11
-35,-20,-14,-9,-31,-10,14,-39,-13,-58,7,11,-35,-30,-28,17,-36,-51,25,205,-14
-43,-28,-19,-18,-33,-18,4,-45,-10,-54,4,10,-34,-29,-27,15,-41,-50,17,196,-16
-49,-35,-24,-27,-35,-25,-5,-50,-7,-48,2,8,-32,-26,-24,10,-46,-47,11,182,-16
-51,-39,-28,-32,-35,-28,-14,-56,-4,-42,0,6,-31,-21,-19,6,-51,-44,10,164,-15
-47,-37,-27,-31,-34,-25,-15,-56,-1,-36,1,6,-27,-14,-11,4,-52,-42,15,143,-12
-38,-29,-20,-23,-29,-17,-10,-50,2,-27,4,7,-21,-5,-2,5,-47,-38,23,119,-8
-27,-16,-8,-12,-22,-5,-1,-38,6,-17,9,9,-13,3,6,8,-38,-33,33,92,-4
-18,-5,2,-2,-16,5,7,-26,13,-6,15,13,-2,12,15,11,-27,-26,40,62,-2
-13,0,11,2,-12,11,11,-15,21,4,21,16,8,19,20,13,-16,-17,43,29,-1
-12,3,16,4,-10,13,11,-7,30,13,25,20,18,24,23,12,-7,-8,42,-5,-1
-14,2,18,2,-8,11,7,-3,39,21,28,22,26,28,24,10,-1,2,38,-38,-2
-16,0,17,0,-7,7,1,-2,49,28,29,24,32,29,23,7,0,12,34,-71,-3
-15,-3,17,-5,-4,2,-4,-1,58,34,29,24,36,31,21,5,2,22,29,-101,-3
-12,-2,19,-7,-1,0,-8,0,66,42,28,25,40,31,20,3,5,31,26,-126,-3
-5,0,22,-8,3,1,-9,4,72,48,29,26,43,32,19,3,6,38,26,-146,-1
1,5,25,-8,7,3,-9,6,75,52,29,28,44,33,18,4,6,43,26,-161,1
7,9,26,-8,10,5,-8,7,74,51,30,30,44,33,16,5,4,45,28,-170,4
13,13,27,-7,11,6,-6,8,71,48,31,31,43,34,15,9,2,45,29,-172,7
16,14,26,-8,10,5,-5,8,68,45,32,33,42,34,13,14,2,44,27,-170,8
16,10,21,-11,7,0,-9,6,67,44,31,34,40,32,12,17,2,44,20,-167,7
10,0,13,-20,2,-11,-18,1,67,43,28,33,36,28,8,19,0,43,9,-166,5
4,-12,4,-29,-4,-24,-28,-7,65,41,24,30,31,23,3,19,-4,40,-2,-167,3
1,-19,0,-34,-8,-31,-33,-13,62,37,22,29,24,18,1,20,-8,36,-10,-166,3
4,-17,0,-31,-8,-30,-29,-15,60,32,23,30,21,17,3,24,-8,32,-13,-162,5
12,-10,7,-23,-6,-24,-19,-11,59,28,27,33,21,19,7,29,-3,29,-12,-153,8
18,-2,14,-15,-3,-16,-8,-5,60,27,31,36,24,22,13,33,2,27,-10,-141,9
19,0,17,-11,-3,-13,-3,-2,61,27,33,37,27,25,17,34,5,27,-11,-130,8
14,-1,15,-13,-5,-14,-2,-1,60,28,32,36,28,27,19,31,3,26,-14,-120,4
7,-7,12,-16,-9,-18,-4,-4,58,28,28,34,26,28,18,27,-1,25,-19,-113,0
1,-11,9,-19,-14,-21,-5,-8,56,26,24,32,23,27,16,23,-8,22,-23,-108,-3
0,-11,9,-17,-18,-21,-2,-10,53,21,22,31,20,27,15,21,-12,19,-28,-104,-3
0,-9,12,-12,-21,-18,2,-12,50,15,21,32,17,26,15,22,-13,17,-34,-99,-1
1,-5,15,-6,-23,-15,7,-12,48,9,22,34,16,25,16,24,-11,15,-42,-94,2
2,-2,18,-1,-25,-12,10,-12,46,4,25,37,15,23,16,26,-9,14,-50,-89,6
4,1,22,4,-26,-8,14,-11,45,0,28,40,16,22,18,30,-5,13,-57,-83,10
8,8,29,10,-24,-3,20,-6,45,-1,32,44,21,22,20,35,1,12,-63,-74,12
15,18,39,19,-19,5,28,3,47,1,38,50,27,23,24,43,11,13,-67,-62,12
21,26,49,27,-12,12,34,13,51,6,42,55,33,25,27,50,21,15,-70,-52,10
18,24,51,25,-10,10,28,18,54,12,41,56,35,23,25,50,25,16,-79,-47,7
7,9,41,12,-12,-2,10,12,52,15,33,51,28,17,15,43,17,16,-90,-46,4
-5,-7,27,-3,-15,-18,-10,0,45,12,21,41,15,7,2,31,3,12,-100,-46,1
-11,-17,16,-13,-15,-29,-24,-8,36,7,11,32,2,0,-8,20,-8,7,-104,-42,0
-9,-17,12,-15,-11,-33,-28,-12,30,2,6,26,-5,-5,-14,14,-12,3,-104,-31,0
0,-7,15,-7,-4,-27,-21,-10,28,-2,6,24,-9,-6,-15,13,-8,0,-99,-14,0
12,8,23,6,3,-17,-6,-3,28,-5,10,25,-8,-4,-11,17,1,-1,-92,8,-1
24,22,30,19,10,-6,8,3,30,-6,14,26,-5,-1,-6,23,11,0,-86,32,-4
26,25,32,23,13,-2,14,6,31,-7,17,26,-3,0,-3,26,17,0,-85,53,-8
21,18,27,19,13,-4,12,4,29,-9,17,23,-3,1,-3,25,16,0,-87,71,-10
13,8,21,11,11,-7,8,2,25,-12,15,18,-4,1,-3,24,14,-1,-88,88,-11
8,1,19,5,12,-8,5,2,20,-12,14,16,-2,2,-1,24,12,-1,-85,102,-8
6,-1,21,3,15,-4,7,5,17,-9,15,16,0,6,3,25,13,0,-78,113,-4
7,-1,24,3,18,0,10,9,15,-5,17,18,5,12,8,27,14,4,-70,119,0
9,0,27,6,20,6,15,13,15,0,19,21,9,18,13,28,16,10,-61,117,1
12,3,30,9,22,11,21,17,16,3,21,23,13,23,17,28,19,16,-53,108,1
15,5,31,11,24,15,23,21,18,6,23,24,16,26,18,26,23,21,-47,91,0
13,3,28,8,23,13,19,22,21,8,22,22,16,25,15,21,26,25,-46,66,-4
9,-1,23,0,21,7,10,19,24,7,19,18,13,20,9,15,25,27,-49,35,-8
4,-6,18,-7,18,1,0,14,25,3,14,13,8,15,4,9,21,25,-53,0,-10
1,-6,18,-10,17,0,-3,10,26,-1,13,13,4,12,1,9,17,20,-56,-32,-9
2,-1,22,-8,18,4,0,10,27,-5,15,17,3,13,5,14,18,17,-57,-61,-4
4,5,28,-3,20,10,5,14,30,-6,20,23,4,16,11,22,20,14,-58,-86,1
3,9,31,0,21,15,11,17,33,-3,25,30,6,19,18,30,23,13,-59,-109,7
0,8,29,0,21,16,13,19,34,0,27,33,8,22,23,37,21,12,-61,-128,10
-6,4,24,-1,21,14,12,18,33,5,27,33,8,23,25,41,16,12,-61,-145,9
-9,-1,18,-3,21,11,10,16,32,10,25,31,8,24,25,43,9,12,-59,-159,5
-11,-5,13,-3,22,10,11,15,32,15,23,29,9,25,26,46,4,14,-56,-167,0
-8,-5,12,-1,25,13,15,17,33,20,24,29,13,28,28,49,3,18,-51,-166,-3
-2,-3,14,2,28,19,23,21,36,25,26,31,19,31,31,54,8,24,-46,-150,-6
2,-1,17,5,30,24,29,27,40,30,29,33,25,34,34,58,15,30,-43,-104,-7
3,-4,16,4,29,26,31,29,41,33,29,33,27,35,33,59,19,35,-41,-13,-9
3,-9,13,2,27,27,30,28,38,32,26,32,24,33,31,57,20,36,-37,139,-13
5,-10,12,2,26,30,30,27,32,28,22,29,18,31,29,55,21,33,-30,363,-19
11,-7,14,5,26,36,34,29,25,22,19,27,13,30,28,52,25,30,-21,647,-27
17,-3,16,9,27,42,38,32,20,17,19,26,11,30,27,48,31,26,-12,952,-35
21,-1,19,13,27,45,40,36,17,13,21,26,12,31,27,44,37,24,-5,1224,-42
21,-2,20,16,26,45,39,40,18,13,24,27,14,33,26,40,41,23,-3,1399,-45
16,-7,19,16,22,40,35,40,21,17,29,30,18,35,26,38,42,23,-7,1432,-44
11,-13,18,17,16,33,30,38,26,24,34,34,22,37,27,38,40,25,-14,1301,-39
8,-14,18,21,11,28,28,36,32,32,40,41,26,43,31,42,38,28,-19,1027,-31
13,-7,24,30,10,31,35,36,37,40,48,51,31,50,38,49,38,34,-20,660,-21
24,6,34,43,12,39,46,39,44,46,57,61,39,59,47,59,44,41,-16,267,-12
36,20,44,54,16,47,58,44,51,52,66,70,49,66,55,67,51,51,-11,-91,-5
42,28,50,59,20,51,64,49,56,56,71,75,57,70,59,71,58,60,-7,-373,0
42,28,49,56,22,49,62,50,59,58,72,74,61,69,58,70,60,66,-7,-562,1
35,22,45,50,21,43,56,49,60,59,68,70,62,65,52,67,58,70,-8,-667,2
27,14,38,43,19,35,49,45,57,59,63,64,61,60,47,62,53,71,-10,-709,3
21,10,35,39,18,30,46,41,53,58,60,60,59,58,44,60,45,71,-10,-711,5
19,11,35,41,18,30,49,39,48,57,59,59,57,59,44,62,39,69,-7,-693,8
20,15,39,45,20,34,55,39,42,54,60,61,55,62,47,67,34,65,-2,-666,11
21,20,44,47,20,38,61,40,37,51,62,63,53,64,49,73,31,61,0,-636,13
18,19,46,46,18,38,61,38,31,47,61,64,48,63,49,76,26,56,0,-608,14
11,14,45,40,14,33,55,33,25,41,56,61,41,58,44,76,21,49,-5,-581,12
4,6,42,33,8,27,46,26,19,35,49,56,32,48,37,72,14,42,-11,-555,9
0,0,40,28,2,21,37,18,14,29,41,50,24,38,29,68,10,36,-16,-528,5
0,-1,40,27,0,18,32,13,12,26,34,46,19,31,24,66,9,32,-19,-499,1
7,2,42,30,0,19,31,12,12,25,30,44,20,28,23,65,14,30,-18,-467,-1
16,9,44,35,3,21,32,14,13,27,28,42,24,28,24,66,22,30,-16,-433,-2
24,16,44,39,7,22,32,17,14,30,25,40,28,29,26,64,31,31,-13,-397,-1
29,20,40,39,10,21,29,19,12,32,21,34,29,29,26,60,36,30,-12,-361,0
30,19,35,36,12,18,23,18,8,32,14,27,24,26,22,52,35,28,-10,-326,2
30,17,30,33,14,15,17,16,2,30,8,20,17,22,16,43,31,25,-9,-294,4
31,16,27,31,14,14,13,14,-2,27,3,14,9,17,11,35,26,21,-6,-264,5
33,17,27,31,15,16,14,14,-7,22,1,11,5,13,6,29,23,17,-5,-236,5
34,18,28,31,15,18,16,14,-9,17,1,11,3,8,2,25,24,14,-4,-210,4
34,17,29,31,13,19,18,15,-9,11,2,12,4,3,-1,22,26,10,-6,-187,1
31,15,28,30,11,18,18,14,-10,4,3,12,2,-2,-7,20,27,4,-9,-165,-1
26,11,26,27,6,15,16,12,-13,-3,2,12,-1,-9,-16,17,23,-2,-13,-143,-4
19,6,22,23,0,12,14,7,-19,-12,1,10,-10,-17,-23,14,14,-11,-15,-121,-6
12,0,18,21,-6,9,12,2,-27,-20,0,9,-21,-23,-29,14,2,-21,-16,-98,-7
6,-2,15,20,-12,8,13,-1,-35,-26,0,8,-29,-26,-30,15,-8,-29,-16,-74,-6
0,-6,12,19,-18,8,13,-3,-40,-29,0,8,-34,-26,-28,19,-18,-35,-16,-49,-4
-7,-11,10,15,-24,5,11,-5,-43,-29,0,7,-35,-26,-23,23,-24,-38,-19,-23,-2
-15,-18,7,10,-28,0,6,-6,-44,-28,-1,4,-35,-26,-20,26,-28,-40,-23,1,-2
-23,-24,5,4,-31,-5,1,-6,-45,-29,-6,0,-36,-28,-19,26,-32,-42,-28,24,-2
-26,-27,5,0,-32,-10,-2,-7,-46,-33,-11,-4,-38,-31,-19,27,-35,-44,-31,46,-2
-24,-25,6,0,-31,-11,-2,-8,-47,-39,-16,-7,-42,-34,-20,28,-39,-47,-31,67,-2
-17,-17,10,3,-29,-8,2,-8,-50,-47,-19,-7,-46,-37,-21,32,-42,-51,-29,87,-1
-7,-8,15,9,-26,-4,8,-8,-50,-53,-19,-3,-48,-38,-20,38,-43,-54,-28,105,0
0,-2,18,12,-24,-1,12,-8,-48,-54,-15,1,-45,-38,-17,43,-43,-54,-30,120,1
0,-2,17,9,-24,-4,9,-9,-44,-51,-12,5,-41,-38,-16,46,-43,-52,-36,133,2
-2,-8,13,1,-27,-11,0,-11,-39,-45,-11,6,-36,-40,-15,44,-46,-48,-45,143,2
-8,-17,7,-9,-29,-19,-11,-14,-34,-40,-11,5,-33,-41,-16,37,-49,-45,-53,152,1
-12,-22,2,-18,-29,-24,-21,-17,-30,-36,-11,2,-31,-40,-17,28,-52,-41,-57,160,0
-11,-22,1,-22,-28,-24,-25,-17,-26,-35,-9,1,-29,-38,-16,19,-52,-39,-55,168,-1
-6,-16,2,-22,-25,-21,-24,-17,-22,-36,-5,2,-26,-34,-14,12,-48,-35,-50,177,-2
-1,-11,3,-22,-23,-19,-23,-17,-18,-36,0,5,-22,-29,-12,7,-43,-32,-45,185,-3
0,-10,2,-25,-24,-21,-25,-20,-14,-37,5,8,-18,-27,-12,1,-38,-28,-42,192,-5
-4,-14,-1,-31,-26,-28,-32,-26,-12,-37,8,8,-17,-29,-17,-4,-37,-26,-45,196,-8
-11,-23,-8,-39,-30,-38,-41,-34,-12,-38,8,7,-18,-34,-25,-10,-40,-25,-52,199,-12
-18,-31,-13,-46,-33,-48,-50,-41,-13,-40,6,5,-21,-40,-35,-15,-44,-26,-60,200,-15
-22,-34,-14,-48,-34,-53,-54,-46,-15,-42,5,6,-22,-44,-41,-15,-48,-28,-67,201,-17
-21,-30,-10,-44,-32,-52,-51,-46,-15,-42,7,10,-21,-44,-42,-11,-47,-28,-69,203,-17
-17,-22,-4,-37,-28,-47,-44,-41,-13,-39,10,16,-14,-38,-36,-1,-43,-24,-68,203,-16
-13,-14,0,-30,-24,-41,-36,-35,-10,-32,13,21,-5,-28,-27,9,-38,-19,-65,200,-14
-12,-10,1,-28,-22,-36,-32,-30,-5,-23,14,22,4,-18,-16,19,-34,-10,-61,191,-12
-13,-12,-1,-29,-21,-35,-32,-28,0,-14,13,20,13,-7,-7,26,-32,-1,-56,177,-10
-15,-17,-7,-32,-19,-35,-33,-27,3,-6,12,16,21,2,1,30,-32,9,-50,158,-7
-16,-22,-12,-35,-17,-33,-32,-27,8,1,12,15,29,12,10,34,-32,18,-43,134,-3
-13,-24,-14,-34,-13,-29,-28,-26,13,7,14,17,36,21,20,38,-29,27,-35,106,0
-8,-22,-11,-30,-9,-23,-20,-23,17,12,18,23,42,29,29,43,-23,32,-27,76,3
-4,-20,-7,-25,-6,-17,-12,-19,19,14,23,30,47,35,36,48,-17,35,-21,42,5
-4,-19,-3,-20,-5,-14,-6,-16,18,14,26,37,47,36,38,52,-13,34,-17,6,6
-8,-22,-3,-19,-7,-15,-3,-17,13,11,26,41,43,32,35,52,-15,29,-17,-29,5
-15,-29,-6,-22,-12,-20,-6,-22,7,5,24,42,34,23,26,49,-21,22,-21,-64,1
-23,-37,-10,-25,-17,-26,-9,-29,0,0,21,41,24,14,16,45,-30,16,-26,-95,-1
-27,-43,-13,-27,-21,-30,-12,-34,-3,-3,20,40,17,7,7,41,-38,11,-31,-119,-4
-26,-45,-14,-27,-23,-31,-14,-37,-4,-3,22,39,14,3,1,40,-40,10,-36,-137,-5
-23,-46,-14,-27,-24,-32,-16,-36,-1,0,25,38,17,2,1,39,-35,12,-41,-147,-6
-19,-45,-13,-27,-24,-33,-19,-33,2,6,28,36,23,5,3,39,-28,16,-43,-152,-5
-16,-45,-12,-28,-22,-35,-24,-30,6,14,30,32,28,9,5,37,-19,19,-43,-153,-5
-13,-44,-13,-29,-20,-36,-27,-28,9,21,30,27,32,12,7,34,-14,21,-39,-150,-5
-10,-42,-12,-29,-17,-34,-28,-27,9,26,27,22,33,15,9,30,-12,21,-31,-145,-4
-5,-37,-9,-25,-13,-29,-25,-25,7,29,23,18,31,18,12,27,-13,19,-20,-139,-3
0,-29,-4,-18,-8,-21,-19,-21,5,32,20,16,29,21,16,23,-13,17,-9,-133,-1
5,-23,1,-11,-4,-14,-14,-16,3,34,18,14,28,24,19,20,-12,15,-1,-127,0
5,-21,4,-8,-3,-11,-12,-11,2,37,17,13,27,25,22,16,-12,15,2,-123,3
2,-22,4,-9,-4,-13,-13,-8,0,40,16,11,27,26,23,12,-12,16,1,-121,4
-3,-26,0,-11,-6,-18,-16,-8,-2,41,15,10,26,25,22,8,-15,16,-1,-119,6
-8,-30,-3,-13,-9,-22,-15,-12,-6,39,15,10,23,22,20,7,-20,15,-4,-116,7
-9,-30,-6,-12,-11,-23,-11,-15,-11,33,15,13,19,19,18,11,-27,11,-5,-111,8
-7,-27,-7,-7,-12,-20,-2,-18,-15,24,17,19,15,17,18,19,-31,6,-5,-103,9
-4,-23,-7,-1,-12,-17,6,-19,-19,14,18,24,10,14,18,30,-33,0,-5,-93,11
-4,-21,-8,1,-14,-15,13,-18,-21,5,18,26,6,9,15,41,-33,-5,-7,-84,12
-7,-24,-10,0,-17,-16,14,-19,-23,-1,16,25,1,2,10,49,-34,-9,-12,-77,12
-12,-29,-13,-3,-21,-20,12,-20,-25,-8,13,22,-3,-4,4,56,-34,-11,-17,-72,11
-17,-34,-15,-8,-24,-23,9,-22,-26,-12,9,18,-7,-9,0,60,-33,-13,-21,-69,9
-23,-39,-18,-14,-27,-27,5,-26,-28,-14,5,14,-11,-14,-5,62,-34,-15,-23,-68,6
-28,-44,-21,-22,-30,-32,0,-32,-31,-16,0,10,-16,-19,-10,59,-39,-17,-24,-68,2
-29,-44,-22,-25,-31,-34,-2,-39,-35,-20,-4,7,-19,-23,-14,55,-42,-19,-22,-66,0
-24,-39,-18,-21,-28,-30,1,-40,-38,-22,-4,6,-20,-24,-16,51,-40,-20,-17,-58,-3
-16,-30,-12,-14,-23,-23,7,-36,-38,-23,-2,6,-18,-23,-17,45,-32,-18,-11,-46,-6
-6,-21,-3,-5,-17,-14,12,-29,-35,-22,1,9,-16,-22,-18,38,-20,-14,-5,-31,-9
1,-13,3,2,-11,-6,15,-21,-30,-21,6,13,-12,-19,-19,31,-8,-9,-1,-16,-12
7,-7,8,8,-8,0,16,-13,-24,-20,11,17,-8,-16,-20,24,3,-5,1,-2,-15
9,-6,10,10,-7,1,12,-8,-18,-19,15,18,-5,-13,-22,17,10,-3,1,9,-18
7,-8,7,8,-8,1,6,-5,-15,-18,16,17,-3,-11,-24,10,13,-1,0,21,-20
4,-12,5,5,-10,0,1,-4,-13,-16,18,16,0,-8,-23,5,14,0,-2,37,-20
4,-14,4,4,-11,0,-1,-2,-11,-12,20,16,4,-5,-19,3,16,0,-2,57,-20
3,-16,4,3,-12,0,-1,0,-10,-6,20,17,8,-2,-13,3,15,2,-2,80,-21
1,-19,3,1,-13,0,-2,-1,-11,0,18,19,9,0,-9,5,11,4,-2,103,-22
-1,-23,2,0,-14,-1,-2,-5,-14,4,14,21,8,1,-6,8,3,3,-1,121,-23
-3,-23,2,0,-13,-1,0,-7,-19,5,11,23,4,2,-3,13,-5,1,1,135,-23
-2,-20,6,3,-11,2,7,-6,-24,7,10,26,2,3,-1,22,-9,-2,5,144,-23
-2,-16,11,8,-9,7,13,-1,-27,9,11,29,2,4,0,32,-7,-4,9,149,-23
-4,-15,14,10,-8,10,17,4,-27,11,15,31,4,5,2,41,-4,-5,10,148,-23
-7,-17,15,10,-8,9,18,8,-26,13,18,33,6,5,4,49,-2,-6,10,139,-25
-8,-18,15,10,-8,9,19,9,-25,12,21,35,7,6,5,57,-2,-7,12,125,-28
-5,-15,18,15,-7,11,25,8,-24,10,25,38,8,7,8,65,-2,-7,16,105,-31
2,-7,23,23,-3,16,35,9,-22,8,30,41,10,12,12,72,-1,-5,24,80,-32
12,3,30,32,1,23,45,10,-18,7,37,45,14,17,16,79,1,0,33,50,-32
21,12,34,37,6,26,50,11,-13,8,43,46,20,22,19,81,6,7,38,18,-29
24,13,34,35,9,24,47,11,-7,11,45,45,25,25,20,78,11,16,37,-16,-24
21,9,29,27,9,16,37,8,-1,16,45,40,30,26,19,72,12,26,33,-48,-20
15,2,21,17,8,7,24,4,2,20,44,35,33,26,18,63,11,33,26,-76,-16
11,-2,14,9,8,1,13,0,5,21,41,31,33,26,18,55,8,37,22,-98,-14
10,-3,12,7,10,0,9,0,6,20,38,29,31,26,19,50,4,37,20,-114,-14
13,0,14,8,14,0,11,1,5,16,36,29,28,27,22,47,1,34,22,-126,-13
16,5,17,11,18,3,15,3,4,11,33,29,25,27,23,46,0,30,23,-135,-12
16,5,17,11,21,3,15,3,2,6,29,29,20,24,21,44,-3,25,21,-142,-11
13,1,13,5,21,-1,11,0,-1,1,22,25,15,19,16,39,-7,20,16,-144,-9
6,-5,6,-1,19,-9,3,-6,-5,-3,15,20,8,11,8,33,-12,13,10,-130,-8
0,-12,0,-7,16,-16,-3,-12,-9,-9,8,13,1,3,0,26,-17,7,4,-83,-9
0,-13,-3,-9,14,-18,-5,-15,-13,-17,3,7,-6,-3,-8,20,-19,0,1,13,-12
2,-8,0,-6,15,-15,-1,-13,-17,-25,0,3,-13,-9,-15,14,-16,-7,3,178,-17
7,0,7,-1,18,-7,5,-7,-21,-34,-1,0,-19,-14,-20,10,-11,-16,6,412,-24
10,6,13,2,20,0,12,0,-27,-44,-3,-4,-27,-20,-27,5,-7,-25,10,699,-32
10,8,16,1,20,3,16,4,-35,-54,-9,-10,-35,-28,-36,0,-6,-34,11,1000,-39
5,4,14,-1,17,4,17,5,-44,-62,-16,-17,-45,-38,-46,-6,-11,-43,11,1258,-43
-1,-2,9,-5,13,1,15,2,-52,-67,-24,-22,-54,-46,-56,-10,-18,-49,9,1415,-43
-6,-9,3,-7,8,-2,15,-2,-56,-68,-29,-24,-59,-51,-62,-9,-25,-53,7,1427,-39
-9,-13,0,-5,3,-6,17,-7,-56,-64,-29,-21,-57,-51,-62,-2,-29,-51,5,1277,-31
-10,-13,-1,0,-1,-8,20,-11,-50,-57,-25,-13,-50,-47,-56,8,-29,-46,2,986,-21
-11,-12,-1,4,-5,-11,22,-14,-43,-49,-20,-4,-40,-40,-47,21,-26,-39,0,609,-12
-13,-11,0,6,-9,-15,21,-16,-36,-41,-14,3,-30,-32,-39,31,-23,-32,-2,210,-4
-17,-12,-2,4,-12,-19,16,-18,-33,-34,-11,8,-24,-25,-33,37,-23,-25,-4,-147,2
-22,-15,-5,0,-15,-23,9,-21,-32,-30,-11,9,-21,-21,-31,39,-26,-21,-5,-425,7
-26,-17,-6,-3,-15,-25,2,-23,-34,-28,-12,8,-22,-18,-30,37,-31,-18,-3,-609,11
-27,-17,-6,-5,-14,-24,-1,-23,-36,-27,-12,7,-23,-15,-30,34,-34,-17,0,-708,14
-25,-16,-3,-3,-12,-21,-4,-20,-36,-26,-11,6,-22,-12,-27,30,-32,-17,3,-742,17
-21,-13,0,-1,-10,-19,-6,-14,-33,-24,-8,6,-18,-10,-24,27,-27,-18,5,-735,19
-17,-10,2,0,-9,-17,-6,-8,-29,-22,-6,7,-14,-8,-20,24,-20,-19,6,-707,18
-14,-7,5,1,-8,-16,-7,-2,-26,-21,-3,6,-10,-7,-18,21,-14,-20,8,-670,17
-11,-3,7,1,-7,-15,-6,1,-25,-21,-3,6,-8,-6,-17,19,-11,-21,12,-632,16
-7,1,8,2,-7,-13,-3,3,-27,-25,-4,5,-9,-6,-16,19,-12,-22,18,-596,15
-3,7,11,3,-6,-8,2,4,-31,-30,-5,5,-12,-7,-16,19,-14,-23,26,-562,15
0,13,14,6,-5,-2,10,5,-35,-36,-6,6,-15,-8,-15,21,-16,-24,33,-527,14
4,18,16,9,-5,2,17,6,-38,-40,-6,6,-15,-9,-15,22,-14,-23,38,-492,13
5,19,16,10,-5,3,21,8,-38,-40,-7,5,-14,-10,-14,22,-11,-21,38,-455,9
3,17,13,8,-6,1,21,9,-37,-38,-7,2,-12,-12,-16,20,-8,-18,36,-417,4
1,13,10,5,-6,-1,19,9,-34,-35,-8,0,-10,-13,-18,16,-5,-15,34,-378,0
0,11,8,4,-5,-2,19,8,-31,-31,-8,-3,-9,-13,-19,13,-4,-12,34,-340,-1
2,13,9,7,-3,-1,20,9,-28,-30,-7,-4,-8,-11,-20,11,-4,-9,38,-303,-1
6,18,13,12,0,1,24,12,-25,-28,-4,-1,-7,-7,-19,11,-3,-6,44,-268,0
12,25,19,17,4,4,26,15,-22,-27,0,2,-4,-2,-16,12,-2,-3,50,-236,3
15,29,23,20,7,5,26,19,-20,-24,4,6,0,1,-13,15,0,1,52,-207,5
13,28,23,17,6,3,20,19,-17,-21,9,9,4,4,-11,17,0,7,51,-183,5
7,21,20,10,3,-3,10,17,-16,-18,12,11,8,5,-10,18,0,12,45,-162,2
0,12,15,1,-1,-10,0,12,-16,-18,13,12,10,3,-10,19,-3,15,40,-143,-1
-4,7,11,-2,-5,-13,-6,7,-17,-23,13,13,9,2,-7,22,-6,14,37,-124,-4
-3,8,12,0,-7,-11,-5,5,-18,-30,14,17,9,2,-3,27,-6,11,37,-104,-6
1,13,17,6,-5,-5,1,7,-19,-37,16,22,9,3,0,33,-3,7,39,-84,-6
5,20,22,14,-2,1,9,11,-20,-42,17,26,10,4,4,38,0,4,40,-63,-5
7,23,25,17,0,5,14,13,-22,-43,17,27,11,2,5,40,0,3,38,-41,-4
3,20,23,15,0,4,14,12,-24,-41,15,26,11,0,4,40,-4,3,34,-19,-4
-2,14,18,9,-1,0,10,8,-28,-36,12,22,8,-4,2,38,-11,5,27,2,-4
-7,8,13,1,-2,-4,5,2,-31,-30,9,18,5,-7,1,35,-17,6,21,25,-3
-7,8,10,-2,-2,-5,3,0,-32,-24,8,16,3,-9,2,32,-21,7,18,49,-2
-2,13,12,-1,0,-2,4,-1,-30,-19,9,16,3,-8,4,31,-20,7,17,71,0
6,21,18,2,3,2,8,1,-26,-15,11,17,4,-8,5,30,-16,7,17,92,2
14,30,25,7,8,6,12,3,-21,-13,13,18,5,-9,3,27,-10,6,18,111,4
18,36,28,8,11,6,12,4,-18,-13,13,17,4,-12,-1,23,-8,5,16,129,6
19,37,29,7,11,1,9,1,-18,-13,11,14,0,-18,-9,17,-11,3,13,144,7
19,35,27,5,11,-4,6,-3,-20,-14,8,11,-5,-24,-18,11,-16,1,10,160,6
20,35,27,4,11,-7,5,-7,-24,-16,5,8,-11,-29,-25,7,-20,-1,9,175,4
24,38,29,7,13,-5,9,-6,-27,-16,2,6,-16,-31,-28,5,-20,-4,12,190,2
30,45,34,12,16,0,17,-1,-29,-15,1,5,-17,-32,-30,4,-15,-7,17,203,0
37,52,41,19,21,7,25,5,-29,-12,0,4,-17,-32,-30,3,-8,-9,23,214,0
44,59,47,24,26,16,32,13,-27,-8,0,2,-14,-31,-28,4,0,-10,29,223,1
47,63,50,25,29,21,33,19,-24,-3,-1,0,-10,-29,-26,5,8,-8,32,228,2
45,58,46,19,29,19,27,19,-21,1,-2,-2,-8,-29,-26,5,11,-5,31,228,3
40,48,38,8,27,13,16,13,-20,4,-5,-7,-9,-29,-26,4,8,-3,27,224,1
38,42,31,1,26,10,10,8,-21,3,-7,-11,-10,-29,-24,5,5,-1,25,219,0
42,43,30,1,29,13,12,8,-22,3,-6,-12,-10,-26,-18,9,9,0,26,216,-2
50,48,34,5,35,20,19,12,-21,5,-4,-11,-7,-23,-10,14,18,3,28,216,-4
59,54,40,12,41,27,27,18,-19,9,-2,-10,-4,-20,-2,18,29,6,29,217,-4
68,59,44,20,46,34,35,24,-18,14,0,-9,-1,-15,4,21,37,9,30,218,-4
73,62,47,26,49,40,41,28,-18,18,-1,-8,0,-11,9,22,43,10,30,216,-2
74,62,47,31,50,44,45,29,-19,20,-2,-7,0,-8,12,20,44,10,31,209,0
74,62,46,35,49,48,49,29,-21,20,-4,-7,-3,-6,12,17,42,8,32,195,0
74,63,46,41,50,52,54,31,-23,18,-5,-6,-6,-4,12,12,40,6,35,175,0
72,64,47,46,50,56,57,34,-23,18,-5,-6,-8,-5,9,6,41,5,35,148,-1
66,60,46,45,48,54,53,36,-23,18,-7,-8,-10,-8,3,-2,42,5,31,117,-3
56,49,41,38,44,46,42,34,-23,20,-10,-13,-13,-14,-5,-15,42,6,23,80,-6
45,37,32,29,38,35,27,28,-24,20,-14,-19,-17,-20,-16,-28,39,6,13,43,-8
40,30,28,24,34,29,18,23,-26,17,-16,-23,-20,-24,-23,-39,39,5,6,9,-8
43,33,29,26,33,29,18,22,-26,14,-15,-24,-21,-25,-26,-44,43,4,4,-17,-8
51,42,34,33,34,34,24,24,-26,10,-11,-21,-18,-24,-26,-44,51,3,4,-37,-6
58,50,39,40,35,38,31,28,-25,6,-8,-18,-16,-24,-26,-43,59,1,3,-53,-4
60,53,41,43,34,38,35,29,-26,2,-7,-17,-16,-26,-28,-41,62,-3,0,-68,-2
58,51,39,42,32,36,37,28,-29,-4,-11,-19,-20,-31,-34,-40,59,-9,-4,-82,-2
54,46,36,40,30,33,39,27,-34,-11,-16,-24,-27,-38,-39,-38,54,-16,-9,-94,-2
50,41,34,39,29,34,42,26,-39,-19,-22,-28,-35,-44,-42,-32,48,-24,-11,-104,-2
49,40,36,42,29,37,49,27,-42,-26,-25,-30,-40,-48,-41,-23,44,-29,-11,-109,-2
49,42,39,46,30,43,56,30,-44,-33,-26,-29,-43,-49,-37,-11,44,-33,-9,-109,-2
49,45,42,49,30,47,62,32,-46,-38,-25,-27,-43,-49,-31,1,45,-35,-7,-106,-2
47,45,43,49,30,50,65,33,-46,-41,-25,-25,-42,-49,-25,12,46,-35,-6,-102,-2
44,40,39,45,28,47,62,32,-47,-42,-26,-24,-40,-48,-21,21,44,-34,-6,-97,-2
38,32,32,37,25,41,55,27,-46,-41,-28,-24,-38,-47,-20,26,40,-32,-6,-95,-2
34,23,23,27,23,34,46,21,-45,-38,-30,-24,-35,-44,-18,28,34,-28,-6,-93,-1
32,16,16,19,22,28,39,16,-41,-32,-31,-23,-32,-39,-15,27,31,-23,-4,-90,-1
33,12,13,14,23,25,33,13,-36,-25,-29,-21,-27,-33,-12,24,32,-18,-1,-87,-1
37,11,13,11,26,25,31,14,-31,-18,-25,-19,-21,-26,-8,20,35,-13,2,-82,-3
43,14,17,13,31,28,33,19,-26,-11,-21,-17,-17,-20,-4,15,42,-9,8,-76,-6
49,18,24,17,36,33,36,25,-22,-3,-17,-15,-12,-16,-2,9,49,-5,15,-69,-10
54,22,31,24,40,37,41,31,-18,2,-12,-12,-7,-11,0,2,54,-1,21,-62,-13
56,24,36,30,41,40,44,33,-15,7,-8,-8,-2,-7,0,-3,55,2,24,-56,-14
54,24,38,33,40,41,45,30,-12,10,-4,-5,1,-4,1,-9,53,5,24,-51,-13
48,21,36,34,36,37,44,25,-10,10,0,-2,4,-1,1,-13,48,7,21,-46,-10
40,16,32,31,31,32,41,17,-9,10,0,0,6,0,0,-16,41,8,16,-41,-6
29,8,25,26,23,23,36,8,-9,8,0,1,6,-1,-3,-18,32,8,7,-38,-2
17,0,16,18,15,11,30,0,-11,7,-2,1,5,-4,-6,-18,23,7,-2,-35,-1
6,-9,7,10,7,1,24,-8,-14,6,-6,1,3,-7,-9,-15,14,4,-11,-32,0
-1,-15,1,5,0,-6,21,-14,-19,6,-9,3,0,-8,-10,-9,4,0,-16,-26,0
-5,-17,-2,2,-4,-9,21,-19,-25,4,-11,5,-5,-8,-8,-1,-3,-4,-18,-19,1
-6,-16,-4,2,-8,-9,22,-21,-31,1,-10,8,-8,-6,-3,8,-11,-9,-15,-10,3
-5,-12,-4,2,-10,-7,23,-22,-36,-1,-8,12,-10,-4,2,20,-15,-13,-11,0,6
-6,-10,-4,2,-10,-5,23,-20,-39,-2,-6,14,-10,-2,7,31,-17,-15,-7,9,9
-9,-11,-5,-1,-12,-7,18,-19,-40,-2,-5,14,-9,-3,9,38,-18,-16,-5,17,11
-16,-17,-9,-7,-14,-12,9,-20,-41,-3,-4,12,-9,-4,7,43,-20,-15,-7,25,11
-23,-24,-13,-13,-16,-19,0,-23,-41,-4,-5,10,-10,-7,4,45,-23,-16,-9,35,10
-26,-26,-15,-15,-18,-23,-5,-26,-41,-8,-5,9,-12,-10,0,46,-25,-18,-9,48,7
-24,-23,-13,-11,-18,-21,-6,-26,-40,-13,-5,10,-14,-12,0,47,-25,-21,-6,67,3
-19,-16,-8,-4,-18,-16,-2,-24,-37,-18,-4,10,-13,-12,0,47,-22,-25,-1,91,0
-14,-10,-5,0,-19,-11,0,-20,-35,-21,-4,9,-12,-13,0,43,-18,-27,3,115,-3
-11,-7,-3,3,-21,-8,2,-16,-33,-22,-5,5,-10,-14,0,35,-15,-29,8,135,-6
-11,-9,-4,1,-24,-7,1,-14,-32,-19,-9,-2,-10,-15,-2,23,-14,-29,12,147,-9
-12,-13,-6,0,-26,-6,1,-12,-32,-15,-13,-10,-11,-16,-6,9,-15,-29,18,150,-11
-13,-15,-6,-2,-28,-4,2,-10,-32,-11,-16,-17,-12,-16,-10,-3,-17,-28,24,145,-12
-12,-15,-4,-1,-28,0,7,-7,-32,-9,-17,-21,-11,-15,-12,-12,-16,-27,32,133,-12
-9,-10,0,0,-27,4,12,-4,-30,-9,-14,-21,-9,-14,-14,-18,-14,-25,38,118,-11
-8,-5,3,2,-28,6,15,-2,-28,-13,-10,-19,-7,-16,-16,-21,-11,-25,42,97,-9
-9,-2,3,0,-29,4,13,-3,-26,-18,-6,-18,-6,-20,-20,-25,-9,-25,42,71,-7
-13,-4,0,-4,-33,-3,3,-9,-27,-24,-5,-18,-8,-27,-27,-30,-10,-27,38,41,-5
-19,-9,-8,-12,-38,-15,-11,-19,-28,-31,-7,-20,-14,-35,-36,-36,-14,-31,31,6,-2
-25,-16,-16,-20,-42,-28,-26,-30,-30,-38,-11,-23,-22,-42,-46,-42,-21,-34,24,-29,0
-30,-20,-23,-25,-45,-38,-38,-39,-32,-43,-14,-25,-30,-47,-53,-43,-25,-38,19,-64,4
-32,-21,-25,-26,-45,-42,-43,-43,-32,-46,-17,-26,-34,-49,-55,-41,-26,-39,16,-96,6
-31,-19,-23,-24,-42,-42,-43,-41,-30,-46,-17,-25,-34,-47,-52,-35,-22,-38,16,-122,8
-28,-16,-19,-20,-36,-39,-38,-35,-28,-43,-17,-23,-32,-43,-45,-27,-16,-36,17,-144,8
-24,-12,-13,-16,-30,-35,-32,-28,-26,-38,-16,-21,-30,-39,-37,-19,-10,-33,20,-161,6
-20,-8,-9,-12,-24,-30,-25,-21,-24,-33,-16,-20,-28,-35,-30,-11,-6,-31,24,-173,4
-15,-6,-5,-8,-20,-25,-18,-17,-25,-30,-15,-18,-28,-33,-24,-3,-6,-30,28,-179,2
-11,-4,-2,-4,-17,-20,-11,-16,-26,-29,-15,-17,-30,-32,-20,3,-9,-31,33,-173,1
-8,-3,-1,0,-15,-16,-4,-17,-28,-30,-15,-14,-32,-33,-16,10,-12,-34,37,-147,1
-7,-4,0,3,-15,-13,1,-18,-30,-31,-14,-12,-34,-35,-15,13,-15,-38,37,-89,1
-9,-8,-2,3,-17,-13,2,-19,-33,-33,-15,-12,-35,-39,-17,12,-18,-41,34,17,0
-12,-15,-6,0,-18,-14,0,-19,-36,-35,-20,-15,-39,-46,-23,6,-19,-45,29,184,-5
-15,-22,-10,-5,-19,-16,-4,-18,-42,-37,-26,-21,-44,-54,-34,-5,-20,-48,25,415,-11
-14,-27,-13,-10,-17,-15,-8,-15,-48,-39,-34,-29,-49,-61,-46,-18,-20,-50,26,696,-19
-9,-26,-13,-12,-13,-10,-7,-11,-54,-39,-41,-36,-52,-65,-55,-29,-18,-48,33,989,-25
-2,-22,-10,-10,-6,-2,-1,-5,-57,-37,-45,-39,-51,-65,-58,-36,-14,-44,43,1236,-29
4,-17,-6,-6,0,7,7,1,-56,-31,-44,-39,-44,-59,-56,-37,-9,-35,55,1379,-30
6,-13,-4,-1,3,15,16,8,-51,-19,-40,-35,-33,-50,-47,-32,-4,-24,63,1372,-25
2,-15,-4,0,3,18,21,12,-42,-3,-34,-29,-19,-40,-36,-24,-1,-12,66,1203,-18
-6,-22,-7,0,-1,16,22,13,-33,12,-26,-22,-5,-29,-24,-15,-3,-2,63,898,-7
-16,-29,-11,0,-8,12,20,11,-26,26,-18,-16,4,-19,-12,-4,-8,4,56,514,2
-23,-33,-12,0,-16,9,19,7,-21,34,-10,-8,11,-10,-1,7,-14,7,49,122,12
-25,-31,-9,5,-20,9,20,4,-18,35,-2,0,14,-2,9,20,-20,6,43,-218,19
-24,-25,-3,13,-23,10,23,2,-17,30,3,8,13,3,18,32,-23,1,38,-474,23
-23,-19,2,20,-25,11,26,0,-17,22,7,15,8,4,23,41,-25,-6,32,-637,24
-25,-17,5,24,-27,9,25,-3,-18,13,6,18,1,1,22,46,-29,-13,22,-721,23
-32,-20,4,22,-31,2,19,-9,-20,5,2,16,-6,-7,15,47,-35,-21,10,-748,21
-40,-28,0,16,-36,-7,11,-16,-23,-1,-5,10,-15,-17,6,44,-43,-27,-2,-741,18
-47,-37,-6,9,-40,-15,4,-23,-26,-6,-13,2,-23,-27,-2,42,-50,-31,-14,-716,15
-50,-40,-10,6,-41,-20,1,-26,-26,-9,-19,-4,-27,-31,-7,41,-54,-33,-22,-682,13
-47,-39,-11,5,-39,-19,2,-25,-24,-11,-21,-8,-27,-30,-7,44,-52,-33,-26,-644,13
-39,-33,-10,8,-34,-16,6,-21,-20,-10,-22,-10,-23,-26,-3,46,-45,-31,-26,-605,13
-30,-27,-9,9,-30,-12,10,-16,-15,-7,-21,-11,-16,-19,0,47,-37,-27,-26,-568,15
-24,-26,-10,5,-26,-12,8,-14,-11,-2,-20,-13,-11,-14,2,44,-31,-22,-26,-534,17
-23,-28,-15,-2,-25,-17,1,-15,-9,3,-22,-15,-8,-11,0,36,-28,-17,-28,-503,19
-23,-32,-21,-12,-25,-22,-8,-17,-8,8,-24,-17,-8,-11,-3,25,-29,-12,-30,-472,22
-23,-34,-25,-20,-24,-26,-17,-19,-9,12,-25,-17,-8,-13,-9,15,-29,-9,-30,-442,24
-20,-31,-25,-22,-22,-25,-21,-17,-9,15,-25,-15,-8,-14,-14,8,-27,-5,-28,-412,25
-13,-21,-19,-17,-18,-19,-20,-10,-7,18,-21,-11,-5,-15,-16,4,-19,-2,-25,-381,25
-6,-10,-10,-10,-14,-12,-16,-2,-2,22,-16,-5,0,-14,-18,1,-9,1,-21,-351,23
0,-1,-2,-3,-9,-5,-11,6,2,26,-11,-2,3,-14,-20,-1,0,6,-18,-321,20
3,2,3,0,-6,-1,-8,11,5,28,-8,0,6,-13,-21,-5,6,9,-16,-293,16
5,3,5,2,-4,0,-5,14,7,29,-6,-1,7,-12,-22,-8,9,12,-13,-266,12
6,2,5,2,-1,2,-3,14,6,28,-5,-2,7,-8,-20,-9,9,15,-8,-237,9
8,2,4,3,1,5,0,14,3,28,-3,-3,7,-3,-14,-7,9,17,-1,-209,8
9,1,3,4,4,8,5,16,1,28,-1,-4,9,2,-7,-3,11,20,6,-181,7
10,0,2,5,7,12,10,19,0,31,0,-5,12,9,1,1,14,22,13,-157,7
9,-2,0,5,9,14,12,23,-2,35,0,-7,16,15,8,6,15,24,18,-136,6
6,-6,-1,4,10,14,12,25,-3,40,-2,-9,18,19,14,9,13,25,23,-118,5
2,-10,-3,3,10,14,11,25,-7,43,-6,-11,17,21,16,13,7,25,28,-102,4
-1,-14,-4,4,10,15,10,23,-13,42,-10,-12,12,21,18,18,-1,22,34,-85,3
-4,-15,-3,5,9,18,11,19,-20,39,-13,-11,5,21,19,24,-11,19,40,-66,3
-6,-14,-2,6,9,20,13,16,-25,35,-13,-8,0,21,22,32,-17,16,46,-45,2
-9,-14,-1,6,8,21,16,15,-28,32,-12,-4,-2,22,24,39,-19,14,50,-21,2
-12,-15,-1,4,6,18,17,15,-27,31,-10,-1,-2,21,26,43,-16,13,52,3,1
-15,-17,-3,1,6,13,17,17,-23,31,-7,0,-1,20,26,43,-11,12,52,27,0
-14,-17,-4,0,6,9,16,18,-18,32,-5,1,0,19,24,40,-5,11,53,49,0
-9,-14,-2,0,9,7,17,20,-14,31,-2,2,1,18,22,35,1,10,58,71,-1
0,-5,3,6,14,12,20,24,-10,29,1,4,2,18,21,29,7,9,67,91,-3
13,6,11,15,20,19,25,29,-8,25,5,7,3,18,21,24,13,9,78,111,-5
23,17,20,23,24,27,29,34,-7,21,9,10,3,19,21,19,19,10,88,129,-7
27,24,24,27,26,31,29,39,-8,18,10,10,3,17,19,12,21,9,93,146,-10
25,24,25,26,25,31,24,40,-10,15,8,7,0,13,14,2,19,8,93,160,-13
19,20,24,23,22,27,17,39,-13,12,4,2,-3,7,6,-7,14,4,90,173,-16
10,14,22,19,19,22,9,37,-16,8,-1,-2,-9,0,-2,-16,7,-1,86,183,-18
3,9,21,16,16,20,4,34,-21,3,-8,-8,-15,-6,-11,-24,0,-8,82,192,-19
2,9,24,19,17,23,6,33,-26,0,-13,-13,-21,-12,-17,-29,-3,-14,82,201,-19
6,10,28,23,19,28,11,36,-28,-1,-17,-17,-23,-15,-20,-31,-4,-16,81,209,-17
2,1,23,18,16,24,8,31,-30,-2,-23,-24,-26,-20,-25,-35,-9,-19,75,212,-17
-6,-15,8,5,8,12,-1,18,-35,-7,-34,-35,-34,-27,-33,-42,-23,-24,66,209,-17
-11,-25,-2,-2,3,6,-2,5,-43,-17,-43,-44,-43,-32,-37,-45,-36,-33,63,207,-16
-7,-22,-3,0,2,9,7,0,-48,-27,-45,-47,-47,-32,-35,-41,-39,-41,65,208,-14
0,-13,0,6,4,15,20,0,-50,-34,-42,-44,-45,-28,-29,-33,-35,-47,68,209,-11
4,-6,4,12,5,19,30,3,-49,-37,-37,-40,-40,-24,-23,-25,-28,-50,67,207,-8
7,0,7,14,5,21,33,6,-45,-34,-32,-34,-34,-20,-16,-18,-19,-48,62,200,-5
7,0,6,11,2,18,27,6,-40,-30,-29,-29,-28,-18,-12,-14,-11,-43,52,186,-4
2,-6,0,1,-3,7,12,2,-35,-25,-29,-26,-23,-19,-11,-14,-8,-38,38,164,-4
-2,-14,-10,-10,-9,-4,-4,-6,-33,-24,-31,-26,-23,-20,-14,-17,-10,-35,27,137,-5
-1,-15,-15,-16,-11,-10,-14,-13,-32,-24,-31,-25,-23,-20,-15,-18,-13,-34,24,108,-6
7,-7,-13,-13,-8,-8,-14,-14,-29,-23,-27,-22,-22,-17,-15,-16,-10,-32,28,79,-7
18,3,-6,-7,-1,-2,-9,-10,-24,-19,-19,-17,-16,-11,-14,-14,-4,-27,34,49,-7
26,8,-1,-3,5,0,-8,-5,-17,-12,-13,-14,-9,-5,-14,-13,1,-20,37,17,-7
29,7,-1,-4,9,-2,-12,-4,-12,-5,-9,-14,-4,-2,-17,-15,4,-12,37,-16,-7
29,3,-2,-4,12,-5,-16,-3,-9,0,-8,-15,-1,-1,-20,-17,4,-5,36,-48,-6
30,2,-2,-3,13,-5,-17,-1,-8,3,-7,-16,0,-1,-22,-17,4,0,35,-76,-3
30,2,-1,-1,13,-5,-18,0,-9,4,-7,-16,1,-1,-24,-16,4,4,34,-99,-1
28,3,-2,0,11,-4,-19,0,-11,4,-7,-16,0,-1,-25,-14,0,6,31,-117,1
25,5,-3,0,9,-2,-19,0,-14,3,-9,-16,-3,-1,-27,-12,-5,4,28,-130,3
22,7,-2,1,8,1,-16,0,-15,2,-10,-17,-4,0,-27,-9,-9,2,26,-138,4
19,9,-2,1,7,5,-12,2,-15,3,-10,-18,-3,2,-26,-7,-12,2,23,-142,5
12,3,-5,-1,5,4,-13,1,-13,7,-11,-20,-1,2,-26,-8,-14,2,18,-144,5
2,-7,-13,-10,0,-1,-20,-2,-11,10,-13,-23,0,1,-27,-11,-20,4,10,-148,4
-5,-19,-22,-17,-4,-7,-28,-9,-10,12,-14,-25,0,0,-26,-15,-25,4,4,-151,5
-8,-24,-26,-19,-8,-9,-30,-14,-8,11,-13,-23,0,1,-22,-14,-27,4,2,-152,5
-3,-20,-25,-14,-9,-6,-26,-14,-5,10,-7,-18,3,6,-14,-9,-22,5,4,-149,6
3,-13,-22,-5,-9,0,-18,-9,-1,8,0,-11,9,13,-4,-1,-13,6,9,-142,6
8,-8,-19,1,-10,2,-12,-6,2,6,4,-5,14,19,3,5,-4,7,12,-133,5
8,-9,-21,4,-13,2,-9,-5,3,3,7,-4,15,22,7,10,0,6,13,-124,1
5,-14,-26,3,-17,0,-11,-8,0,0,6,-6,11,20,6,11,-2,3,13,-115,-2
0,-22,-33,0,-23,-6,-15,-14,-5,-5,3,-10,5,15,3,11,-8,0,11,-105,-6
-5,-27,-40,-4,-27,-10,-18,-19,-10,-9,1,-13,0,11,0,12,-16,-4,10,-93,-10
-8,-29,-43,-6,-31,-12,-18,-23,-14,-12,0,-15,-5,7,-1,15,-23,-7,9,-82,-11
-10,-26,-42,-6,-32,-11,-15,-23,-16,-12,0,-14,-7,6,-1,19,-26,-9,8,-71,-10
-10,-21,-39,-5,-32,-10,-11,-21,-15,-10,2,-13,-6,6,0,23,-26,-10,8,-64,-7
-10,-17,-34,-5,-32,-9,-8,-17,-12,-6,3,-12,-4,7,0,26,-23,-9,7,-62,-3
-10,-14,-30,-5,-31,-9,-6,-14,-10,-1,2,-12,-2,7,0,26,-22,-7,8,-64,0
-10,-12,-26,-6,-30,-10,-6,-12,-9,2,0,-12,-3,6,-1,23,-22,-4,8,-67,3
-8,-10,-22,-6,-28,-11,-6,-12,-10,6,-3,-13,-4,6,-3,21,-24,-1,10,-67,5
-4,-6,-18,-5,-25,-11,-6,-11,-9,10,-6,-13,-4,7,-4,19,-23,3,12,-62,6
0,-3,-15,-5,-23,-12,-7,-9,-6,15,-7,-13,-2,8,-4,15,-19,9,12,-51,6
1,-1,-14,-6,-20,-14,-10,-6,0,21,-7,-14,2,9,-5,10,-11,17,9,-38,6
2,-1,-14,-9,-16,-17,-13,-2,6,28,-7,-14,8,10,-7,3,-2,25,4,-26,5
2,-1,-14,-12,-11,-18,-16,0,14,33,-6,-15,13,10,-10,-4,5,32,0,-17,4
3,0,-12,-12,-6,-17,-14,3,19,34,-6,-15,15,9,-13,-10,10,36,-1,-13,4
5,3,-8,-8,-1,-12,-8,5,21,30,-6,-13,14,8,-15,-12,11,37,0,-11,5
8,10,-2,-1,2,-2,1,8,19,23,-5,-10,10,6,-14,-8,9,33,5,-8,6
11,16,2,7,6,7,13,10,16,16,-3,-5,6,5,-11,-2,4,26,9,-2,5
10,19,7,15,6,16,23,13,12,10,0,0,3,5,-7,4,0,19,12,8,4
4,17,7,16,5,20,28,15,7,7,2,4,2,4,-2,9,-5,11,11,24,0
-5,8,3,13,1,20,27,15,2,6,4,6,0,2,1,12,-12,3,6,45,-3
-16,-3,-1,7,-3,18,23,11,-4,4,4,6,-3,0,4,11,-20,-4,1,69,-6
-23,-12,-6,2,-9,16,19,7,-14,0,3,4,-9,-3,6,11,-27,-13,0,94,-7
-25,-16,-7,1,-14,17,19,4,-24,-6,1,2,-16,-5,10,12,-32,-22,0,118,-7
-22,-15,-7,3,-18,19,22,2,-32,-13,-1,2,-22,-6,14,16,-35,-31,3,138,-5
-18,-14,-7,6,-22,19,25,2,-39,-19,-5,2,-27,-6,16,20,-37,-38,6,152,-3
-16,-14,-8,6,-26,16,26,0,-43,-22,-12,1,-31,-9,17,22,-38,-43,7,157,-1
-16,-17,-12,2,-29,9,22,-2,-47,-25,-19,-2,-34,-13,13,20,-40,-47,5,152,1
-18,-22,-18,-3,-33,0,14,-8,-49,-26,-28,-8,-38,-20,6,15,-42,-49,0,137,3
-19,-24,-21,-8,-35,-7,6,-14,-51,-29,-35,-16,-41,-28,-2,8,-42,-51,-6,114,6
-15,-21,-19,-11,-34,-11,1,-18,-52,-32,-40,-23,-44,-35,-11,1,-39,-52,-10,83,8
-6,-12,-13,-10,-30,-10,0,-18,-51,-35,-41,-26,-43,-39,-18,-3,-31,-51,-12,50,10
4,0,-5,-6,-22,-6,2,-14,-48,-37,-39,-27,-40,-40,-24,-7,-19,-48,-11,17,12
16,12,1,-4,-13,-2,4,-8,-44,-36,-36,-26,-34,-40,-30,-10,-6,-43,-10,-15,12
25,20,5,-5,-4,-1,2,-3,-41,-32,-35,-26,-30,-41,-37,-16,4,-36,-10,-45,12
31,23,5,-9,2,-2,-3,-1,-38,-27,-35,-28,-27,-43,-46,-25,11,-31,-10,-72,10
34,22,2,-15,8,-6,-12,-1,-36,-23,-36,-32,-26,-47,-56,-35,15,-27,-11,-97,8
37,20,0,-18,13,-10,-18,-1,-33,-21,-37,-35,-27,-50,-65,-44,16,-25,-11,-119,5
40,21,0,-18,18,-10,-20,0,-30,-21,-37,-36,-28,-52,-70,-50,19,-26,-11,-135,2
44,24,1,-14,21,-8,-18,1,-26,-22,-35,-35,-28,-53,-72,-52,23,-28,-12,-145,0
45,26,3,-9,23,-6,-14,3,-24,-26,-33,-33,-29,-53,-71,-52,26,-31,-14,-148,0
41,25,3,-6,21,-4,-12,3,-24,-31,-33,-34,-31,-55,-72,-52,26,-36,-18,-141,-2
34,19,0,-7,17,-5,-13,0,-28,-37,-34,-37,-36,-58,-73,-54,21,-42,-23,-115,-3
23,10,-5,-11,11,-9,-17,-5,-34,-42,-38,-42,-41,-60,-75,-58,12,-47,-27,-56,-6
12,2,-12,-16,6,-14,-21,-11,-40,-46,-41,-46,-46,-61,-75,-62,1,-51,-29,52,-10
4,-4,-16,-20,2,-18,-22,-16,-43,-49,-42,-47,-47,-59,-72,-63,-6,-54,-29,226,-15
0,-6,-19,-22,2,-22,-19,-16,-43,-49,-41,-44,-44,-53,-65,-61,-9,-54,-27,466,-20
-1,-7,-19,-25,3,-26,-12,-13,-40,-47,-37,-40,-39,-46,-55,-57,-6,-52,-25,752,-26
-1,-7,-18,-27,5,-31,-4,-8,-37,-43,-34,-36,-34,-40,-46,-52,0,-49,-25,1040,-30
0,-8,-18,-30,7,-37,3,-4,-35,-37,-31,-33,-29,-35,-37,-47,4,-46,-27,1269,-32
1,-9,-18,-32,9,-42,10,-1,-34,-31,-29,-32,-26,-31,-30,-42,6,-41,-29,1381,-31
4,-10,-17,-30,10,-43,17,0,-32,-23,-26,-31,-23,-27,-22,-35,4,-36,-32,1339,-26
8,-7,-14,-24,11,-40,25,-1,-27,-14,-21,-26,-17,-19,-12,-25,0,-28,-33,1140,-18
12,-3,-10,-15,11,-34,33,-1,-18,-2,-13,-18,-8,-9,0,-13,-2,-17,-36,818,-8
15,0,-6,-7,10,-28,38,-1,-5,12,-2,-9,4,2,12,0,-3,-3,-40,435,2
14,0,-4,-3,8,-26,39,0,8,27,8,0,18,13,23,10,-3,10,-46,56,12
8,-2,-7,-6,3,-29,33,-2,21,41,18,4,29,22,29,17,-4,24,-54,-264,19
0,-7,-12,-13,0,-35,23,-6,30,51,23,5,35,26,30,20,-7,33,-61,-499,24
-7,-10,-18,-19,-4,-41,13,-11,34,56,26,6,35,29,28,20,-12,37,-64,-644,25
-11,-11,-22,-23,-6,-44,6,-16,35,56,27,6,32,30,25,20,-17,37,-62,-710,25
-13,-10,-24,-24,-6,-45,1,-20,35,54,28,8,28,31,22,20,-20,35,-58,-722,22
-12,-8,-23,-23,-4,-43,0,-22,36,50,29,12,25,32,20,20,-21,32,-54,-700,17
-3,3,-15,-15,0,-34,6,-19,38,46,33,19,27,36,23,25,-14,30,-45,-659,12
15,27,3,4,10,-13,27,-5,42,43,44,31,36,44,32,36,3,28,-32,-606,8
41,59,30,32,24,16,56,18,50,46,60,46,51,54,47,52,33,30,-17,-546,6
64,88,57,59,36,44,81,43,60,55,77,62,69,64,64,67,64,37,-6,-490,5
68,93,66,65,39,53,83,56,70,66,86,72,82,68,72,72,81,45,-8,-446,5
46,65,47,42,27,33,53,45,71,73,80,68,82,63,65,62,69,49,-26,-420,4
7,17,10,1,5,-3,5,16,63,73,62,53,69,50,48,40,34,48,-50,-407,3
-26,-25,-24,-35,-14,-37,-36,-13,50,67,43,36,53,38,32,19,-3,43,-68,-395,1
-43,-47,-43,-55,-26,-55,-58,-31,40,61,29,26,41,33,24,9,-29,37,-72,-377,0
-41,-46,-43,-55,-28,-52,-57,-34,32,55,25,23,37,35,27,10,-38,32,-64,-349,0
-25,-27,-29,-41,-23,-36,-39,-25,30,51,28,28,40,43,37,19,-32,30,-46,-313,2
-8,-8,-11,-25,-14,-18,-20,-13,32,52,34,34,47,51,49,31,-19,31,-30,-276,5
-1,-1,-3,-20,-11,-12,-13,-7,34,54,37,37,51,55,54,36,-10,35,-21,-245,7
-6,-7,-7,-28,-12,-18,-20,-11,34,54,34,33,51,54,52,33,-11,38,-22,-222,10
-14,-19,-17,-39,-16,-28,-31,-18,32,51,29,26,48,48,46,25,-16,40,-25,-202,12
-17,-24,-22,-45,-17,-34,-37,-22,30,49,24,20,46,44,41,19,-17,41,-26,-181,13
-15,-23,-21,-43,-15,-34,-36,-22,30,47,22,18,47,41,37,16,-14,43,-24,-157,14
-12,-20,-20,-40,-13,-32,-34,-22,31,45,20,17,47,39,34,13,-12,43,-21,-134,13
-11,-18,-20,-38,-12,-31,-35,-24,30,42,16,15,44,36,30,9,-15,41,-18,-113,11
-9,-16,-20,-35,-12,-30,-36,-27,28,37,12,13,39,33,25,5,-19,37,-13,-92,9
-6,-12,-17,-30,-10,-27,-33,-25,26,36,8,11,36,32,22,3,-20,35,-8,-71,8
-4,-9,-14,-24,-7,-23,-30,-21,25,39,7,9,35,30,19,2,-17,35,-5,-50,7
-5,-11,-13,-21,-6,-22,-30,-16,24,42,4,7,34,28,15,0,-15,35,-5,-31,7
-10,-16,-15,-20,-7,-22,-31,-14,20,43,0,3,30,24,9,-2,-17,33,-7,-14,7
-12,-18,-15,-16,-6,-20,-29,-13,13,38,-2,1,24,20,5,-4,-19,28,-8,3,8
-8,-13,-9,-5,-4,-12,-21,-8,5,31,-3,2,19,17,4,-1,-16,22,-7,23,9
-2,-2,0,8,0,-2,-9,-1,-1,23,-2,3,15,15,6,5,-11,15,-5,44,9
2,5,9,19,1,5,0,4,-8,15,-1,4,11,12,7,10,-7,9,-5,64,9
2,6,13,24,0,7,3,4,-15,8,-3,2,5,8,6,13,-9,2,-9,81,6
-2,0,10,22,-3,4,0,0,-23,2,-8,-2,-1,1,3,13,-16,-4,-15,96,4
-9,-8,5,16,-8,-1,-3,-7,-31,-4,-13,-7,-10,-6,0,11,-27,-12,-20,110,2
-14,-16,0,11,-13,-5,-6,-14,-37,-10,-16,-10,-17,-12,-3,9,-35,-20,-22,126,2
-17,-20,-3,8,-17,-7,-8,-18,-41,-15,-16,-10,-21,-16,-3,7,-39,-26,-23,144,2
-17,-21,-4,6,-19,-8,-8,-19,-43,-20,-14,-7,-22,-18,0,5,-38,-31,-20,162,3
-17,-19,-4,5,-21,-8,-8,-18,-44,-23,-12,-4,-20,-19,0,3,-33,-34,-16,178,3
-17,-18,-4,4,-21,-8,-8,-16,-46,-26,-11,-2,-19,-21,-1,-1,-28,-38,-11,191,3
-19,-21,-6,0,-22,-10,-10,-15,-50,-29,-14,-5,-21,-25,-6,-9,-27,-41,-8,200,1
-23,-26,-10,-3,-22,-13,-13,-17,-55,-33,-20,-10,-27,-30,-15,-18,-30,-45,-7,205,-1
-26,-31,-13,-6,-22,-14,-14,-20,-60,-37,-28,-17,-36,-37,-25,-26,-36,-48,-8,208,-4
-28,-33,-14,-6,-21,-14,-13,-21,-63,-40,-33,-22,-42,-42,-33,-32,-40,-49,-10,212,-6
-27,-33,-12,-3,-19,-13,-11,-20,-63,-40,-35,-26,-45,-45,-38,-35,-40,-49,-14,218,-6
-26,-31,-10,0,-17,-11,-8,-16,-59,-37,-34,-26,-43,-46,-39,-35,-36,-47,-19,224,-6
-25,-28,-7,2,-15,-10,-6,-12,-52,-32,-30,-24,-36,-46,-38,-33,-29,-43,-24,230,-5
-25,-26,-6,4,-13,-10,-4,-7,-44,-26,-25,-21,-28,-43,-35,-30,-23,-37,-28,233,-5
-25,-24,-5,5,-12,-10,-3,-4,-37,-20,-20,-18,-20,-40,-31,-25,-21,-30,-29,230,-6
-23,-21,-4,6,-10,-9,-2,-3,-31,-15,-15,-15,-14,-36,-26,-19,-22,-25,-27,222,-7
-20,-18,-1,9,-8,-6,0,-2,-27,-13,-10,-12,-9,-31,-21,-13,-25,-20,-21,207,-8
-16,-13,2,12,-4,-2,2,-1,-25,-13,-5,-8,-5,-26,-16,-6,-26,-18,-15,184,-8
-11,-8,7,15,0,1,4,1,-22,-13,-1,-5,-3,-22,-10,0,-24,-16,-9,155,-7
-10,-7,10,14,2,2,4,5,-19,-12,1,-3,-1,-18,-7,2,-20,-13,-7,120,-6
-11,-10,9,9,4,0,-1,8,-15,-11,2,-3,0,-16,-5,1,-16,-10,-9,81,-5
-13,-15,6,1,5,-6,-9,9,-12,-10,0,-4,1,-15,-6,-1,-14,-7,-12,40,-6
-14,-19,3,-5,4,-11,-16,7,-10,-10,0,-7,2,-14,-7,-6,-12,-5,-13,0,-6
-11,-18,2,-9,5,-13,-19,5,-8,-11,-1,-8,5,-11,-7,-9,-10,-2,-11,-35,-6
-5,-14,2,-8,6,-12,-19,3,-6,-13,0,-7,9,-6,-6,-11,-6,0,-7,-64,-6
0,-9,2,-7,7,-10,-18,1,-2,-13,2,-6,14,-2,-4,-11,0,2,-3,-89,-5
1,-8,1,-7,7,-11,-20,0,3,-12,4,-4,18,1,-1,-13,6,6,-2,-109,-4
-1,-11,-2,-9,6,-15,-24,-2,9,-8,5,-4,21,3,0,-15,10,10,-4,-126,-3
-5,-16,-6,-13,5,-20,-29,-3,15,-3,3,-6,22,3,0,-18,11,13,-8,-141,-2
-9,-20,-8,-15,4,-22,-32,-3,19,0,1,-8,21,3,0,-20,12,16,-11,-153,-2
-8,-19,-6,-13,6,-20,-30,-2,22,4,0,-11,19,4,1,-20,13,17,-12,-162,-2
-3,-12,-1,-7,9,-13,-22,1,22,5,-1,-12,17,6,4,-17,16,16,-9,-165,-2
4,-2,6,1,13,-3,-11,7,23,5,-1,-12,15,9,7,-12,20,14,-4,-163,-1
12,7,13,9,17,7,0,13,24,5,-1,-11,14,12,9,-9,26,12,0,-158,0
17,12,17,14,20,13,5,18,25,5,-2,-10,13,13,9,-8,29,12,1,-151,0
16,10,17,13,20,14,5,20,26,7,-4,-11,11,11,7,-11,29,12,0,-145,2
12,4,13,7,18,12,1,18,26,8,-6,-14,7,8,3,-17,25,12,-4,-142,4
8,-2,9,0,15,10,-4,15,26,8,-9,-17,2,5,0,-22,19,13,-8,-140,6
7,-3,8,-3,14,11,-5,14,26,8,-9,-18,0,5,0,-24,16,13,-9,-137,8
11,0,11,-3,15,16,-3,16,27,7,-8,-16,-1,8,2,-22,16,12,-8,-131,10
16,6,15,-1,16,22,0,20,27,7,-7,-14,0,13,6,-19,17,11,-5,-122,11
19,10,17,-1,17,25,-1,23,28,8,-6,-13,0,17,8,-17,18,10,-4,-112,11
17,8,15,-3,16,22,-5,21,26,11,-8,-13,1,18,8,-15,15,10,-6,-103,10
12,2,9,-9,12,15,-13,16,24,15,-12,-14,0,17,6,-15,9,10,-10,-96,9
6,-5,0,-14,9,6,-21,8,20,19,-15,-15,-1,15,3,-15,1,12,-15,-90,9
0,-12,-6,-18,6,0,-25,0,17,23,-17,-14,-3,13,0,-14,-4,13,-19,-86,10
-1,-13,-9,-18,4,-3,-24,-2,15,26,-16,-12,-2,12,0,-10,-5,15,-21,-81,11
0,-11,-7,-15,4,-3,-18,-2,14,29,-13,-9,0,12,2,-5,-1,16,-23,-76,11
3,-6,-3,-11,5,0,-11,0,15,32,-8,-6,5,13,5,0,5,16,-24,-71,12
6,-2,1,-7,5,2,-5,3,17,33,-4,-4,10,13,8,1,11,18,-24,-66,11
8,0,3,-5,3,4,-2,5,18,34,-1,-3,14,14,11,1,14,19,-23,-62,10
10,0,4,-2,2,6,0,5,19,34,0,-3,15,16,13,0,14,21,-21,-56,8
11,0,4,0,0,8,1,5,18,34,2,-2,15,18,17,0,11,24,-18,-48,7
13,2,4,5,-1,12,5,5,18,33,5,-2,14,21,20,0,8,27,-13,-38,8
14,4,4,10,-2,15,8,8,18,32,8,-2,14,23,24,3,8,31,-11,-26,9
14,5,3,12,-5,15,9,10,19,32,11,-2,15,25,27,5,9,33,-12,-14,11
9,2,0,10,-9,11,7,10,20,32,11,-3,15,25,28,7,8,34,-18,-2,12
2,-4,-4,5,-14,5,1,7,21,31,9,-5,15,23,26,6,5,32,-26,9,12
-4,-11,-11,-2,-19,-1,-6,2,21,28,5,-6,13,20,23,5,-1,29,-34,23,10
-9,-17,-17,-9,-23,-5,-13,-4,18,22,1,-7,8,16,18,4,-10,23,-39,40,8
-11,-20,-21,-14,-26,-6,-17,-11,15,15,-1,-7,2,12,15,3,-19,17,-41,60,4
-10,-19,-23,-16,-25,-5,-19,-14,12,8,-2,-5,-1,10,12,4,-22,11,-40,79,2
-8,-16,-23,-16,-23,-4,-19,-12,11,5,0,-3,-3,9,11,5,-21,8,-39,97,0
-6,-14,-21,-17,-20,-3,-21,-8,12,5,1,-3,-3,8,9,5,-14,8,-40,111,0
-6,-12,-19,-19,-17,-5,-25,-2,15,6,2,-3,-2,7,5,3,-5,8,-43,119,-1
-5,-9,-17,-20,-13,-7,-28,2,18,7,2,-3,-1,4,0,0,3,9,-44,123,-2
0,-3,-12,-17,-7,-6,-27,6,20,4,2,-4,-1,1,-4,-4,11,9,-43,123,-3
7,8,-3,-9,0,0,-20,11,20,-1,3,-4,-2,0,-7,-7,20,7,-37,121,-5
19,22,6,1,7,7,-10,15,20,-9,6,-3,-3,-1,-9,-8,29,4,-30,113,-6
30,34,15,10,14,14,0,17,21,-16,8,-3,-1,-1,-10,-9,37,2,-24,98,-6
36,41,19,14,19,16,5,16,21,-20,9,-4,0,-2,-12,-11,43,1,-23,75,-6
36,41,17,12,20,12,4,12,21,-22,7,-9,1,-5,-16,-15,45,0,-27,43,-5
32,35,12,6,19,4,0,6,19,-22,3,-15,0,-10,-21,-22,43,0,-34,6,-2
27,29,6,-1,16,-4,-6,-1,17,-22,-2,-22,-3,-16,-26,-30,39,-3,-42,-30,0
26,26,3,-4,16,-10,-8,-7,14,-24,-7,-26,-8,-20,-29,-37,35,-7,-46,-62,4
29,29,5,-2,17,-10,-5,-8,9,-27,-10,-27,-12,-21,-29,-41,32,-13,-45,-87,7
34,34,8,1,20,-7,0,-5,5,-31,-12,-26,-16,-20,-27,-44,32,-18,-41,-103,7
37,37,10,4,22,-4,4,-1,0,-33,-15,-25,-19,-19,-24,-46,33,-24,-37,-114,6
35,34,8,4,22,-4,3,0,-4,-34,-18,-25,-23,-19,-24,-50,30,-28,-35,-122,3
29,24,1,0,18,-7,-1,0,-9,-31,-22,-29,-28,-21,-25,-56,25,-31,-36,-129,1
21,13,-6,-6,13,-11,-8,-3,-14,-27,-27,-35,-33,-24,-28,-61,19,-31,-38,-132,0
14,3,-12,-11,9,-14,-14,-6,-17,-22,-31,-40,-37,-27,-31,-65,14,-30,-39,-124,0
9,-1,-15,-14,6,-14,-18,-9,-20,-17,-34,-44,-40,-30,-33,-67,10,-28,-39,-95,1
8,-2,-15,-15,5,-12,-18,-9,-23,-16,-38,-49,-43,-34,-35,-68,10,-27,-35,-25,2
10,2,-11,-13,6,-8,-15,-6,-29,-20,-44,-53,-46,-38,-37,-69,13,-28,-28,103,1
14,9,-6,-10,9,-3,-11,-1,-36,-26,-51,-57,-49,-43,-42,-70,20,-31,-20,301,-2
19,16,-2,-7,11,0,-7,3,-45,-34,-60,-62,-54,-50,-49,-72,26,-35,-11,563,-9
23,23,1,-4,14,4,-4,7,-54,-44,-69,-67,-62,-58,-58,-76,32,-40,-3,859,-18
28,27,5,0,17,6,0,11,-62,-52,-76,-72,-69,-66,-67,-78,36,-45,1,1139,-27
32,31,8,3,18,8,3,14,-67,-57,-81,-74,-74,-72,-75,-79,40,-48,2,1342,-34
35,33,10,8,19,10,7,16,-68,-57,-81,-73,-75,-75,-79,-75,43,-48,0,1415,-37
35,32,11,12,19,9,10,18,-63,-51,-78,-69,-73,-74,-80,-69,46,-44,-6,1330,-34
33,29,11,15,18,7,11,20,-53,-41,-71,-63,-65,-70,-76,-60,48,-37,-14,1093,-27
31,26,10,16,16,5,12,20,-40,-28,-63,-55,-53,-62,-70,-50,49,-27,-21,748,-16
29,22,9,17,13,4,14,20,-28,-17,-53,-47,-40,-53,-62,-41,48,-17,-27,357,-5
27,20,7,17,11,3,16,17,-17,-9,-44,-38,-31,-43,-53,-34,44,-8,-29,-13,4
25,19,5,17,9,5,20,14,-11,-6,-35,-30,-24,-32,-43,-28,39,-1,-29,-318,10
24,19,5,18,8,8,23,12,-6,-5,-26,-23,-20,-22,-34,-23,35,3,-28,-531,13
21,19,6,18,7,12,24,13,-2,-4,-18,-17,-18,-13,-24,-19,33,7,-29,-654,14
16,16,7,15,6,15,19,15,3,0,-11,-13,-15,-6,-15,-16,33,11,-31,-705,12
10,10,6,9,5,17,8,16,8,5,-6,-10,-12,-1,-7,-14,32,14,-36,-709,11
4,5,5,3,4,20,-4,17,13,12,-3,-9,-9,2,-1,-12,30,15,-39,-686,12
3,4,5,0,3,25,-13,18,15,17,-3,-9,-8,5,5,-11,26,14,-38,-649,14
6,8,7,2,3,34,-15,20,13,17,-3,-8,-8,9,11,-9,24,9,-32,-607,17
12,16,11,9,3,45,-10,23,9,14,-3,-6,-10,12,18,-5,23,2,-22,-563,20
19,23,15,17,3,55,-3,26,4,8,-4,-4,-12,15,24,-1,22,-5,-13,-520,22
22,26,16,22,0,61,1,28,-1,3,-5,-3,-16,15,28,2,21,-12,-8,-480,22
20,23,15,22,-2,60,0,26,-6,-2,-7,-2,-20,13,29,4,18,-18,-8,-444,20
14,16,12,19,-6,57,-2,23,-10,-6,-9,-2,-25,9,27,4,14,-23,-11,-410,17
10,11,9,15,-8,52,-4,18,-12,-12,-11,-2,-29,4,22,4,11,-28,-14,-378,13
9,9,9,13,-8,49,-3,15,-13,-18,-13,-1,-33,-1,16,3,10,-33,-15,-345,9
13,13,12,14,-6,48,1,13,-15,-26,-15,-1,-36,-7,9,3,11,-38,-14,-313,7
21,20,17,18,-2,49,8,13,-16,-33,-16,-2,-38,-12,1,2,15,-43,-12,-282,6
28,26,20,19,0,49,14,14,-16,-38,-18,-5,-39,-16,-7,1,19,-45,-11,-253,5
31,29,19,16,0,43,13,11,-16,-41,-21,-9,-40,-22,-18,-2,20,-44,-13,-227,5
26,24,11,8,-4,31,5,5,-17,-40,-25,-16,-41,-29,-31,-10,18,-41,-18,-205,5
19,16,0,-3,-8,16,-7,-2,-17,-38,-28,-24,-42,-36,-44,-20,13,-36,-25,-186,5
12,8,-10,-11,-12,4,-19,-10,-16,-35,-31,-29,-41,-41,-54,-29,9,-30,-30,-164,5
11,6,-15,-14,-13,-2,-25,-12,-13,-31,-30,-31,-38,-42,-58,-35,10,-23,-32,-138,5
16,9,-14,-11,-10,-2,-26,-8,-8,-27,-26,-30,-31,-39,-56,-37,15,-17,-31,-109,7
23,15,-7,-5,-4,1,-22,0,-2,-21,-20,-27,-23,-32,-51,-37,23,-10,-28,-79,8
29,20,0,0,0,5,-18,8,3,-15,-15,-23,-15,-24,-43,-35,29,-4,-24,-51,9
31,20,3,1,3,8,-16,14,6,-11,-12,-21,-10,-17,-34,-33,28,0,-22,-27,10
28,16,3,1,3,9,-14,17,6,-8,-11,-20,-9,-11,-26,-32,21,1,-19,-8,9
25,11,2,0,2,10,-12,17,4,-7,-11,-21,-10,-7,-18,-29,11,0,-14,9,8
23,7,2,0,1,13,-8,18,1,-6,-9,-21,-10,-4,-8,-24,2,-1,-9,27,6
24,6,4,3,0,18,-1,21,0,-4,-6,-20,-9,0,1,-18,-3,-3,-2,49,4
25,8,6,5,0,22,4,26,1,-1,-2,-18,-5,5,11,-11,-4,-4,2,73,4
25,8,6,7,-1,24,9,31,3,3,2,-16,0,10,20,-6,-2,-2,5,99,4
23,7,5,6,-3,24,10,35,7,9,5,-14,4,14,26,-2,-1,0,7,124,6
20,5,1,4,-4,22,9,36,9,12,6,-13,6,17,30,-1,-1,3,9,146,8
15,1,-2,1,-4,20,5,34,9,13,5,-12,5,18,30,-1,-5,5,12,163,9
12,0,-6,0,-4,19,3,30,9,12,4,-10,2,18,28,-2,-10,6,16,176,9
10,0,-7,0,-2,19,1,26,9,10,5,-7,1,17,25,-2,-12,6,21,188,7
8,0,-7,-1,0,19,0,24,9,9,7,-5,1,15,21,-3,-11,6,23,197,3
6,-2,-8,-3,2,15,-3,23,10,9,9,-4,2,11,15,-4,-8,5,22,206,-1
2,-4,-10,-8,3,9,-8,22,12,9,10,-4,4,7,9,-7,-3,5,16,216,-6
-1,-8,-13,-14,4,1,-15,19,15,10,10,-5,5,2,3,-11,0,5,10,225,-9
-3,-9,-16,-19,5,-4,-19,15,16,8,8,-6,4,0,-1,-14,2,5,5,233,-11
-1,-7,-17,-20,7,-7,-18,12,17,6,8,-5,2,-2,-5,-16,3,4,3,241,-9
4,-2,-16,-16,9,-5,-12,9,18,2,8,-4,0,-2,-6,-15,4,4,5,247,-6
11,3,-13,-11,12,-1,-3,8,19,0,9,-3,0,-1,-6,-13,6,4,9,253,-3
17,7,-10,-6,14,2,5,8,21,-2,9,-3,1,0,-6,-12,9,5,11,257,-1
18,7,-9,-5,14,4,9,8,22,-2,7,-6,1,-2,-9,-12,12,5,10,258,-1
15,2,-10,-7,13,3,10,8,21,-3,3,-11,0,-4,-12,-15,12,4,5,256,-4
11,-2,-10,-9,10,2,8,7,19,-3,-1,-15,-2,-7,-14,-17,9,1,1,252,-7
9,-4,-8,-9,8,5,8,8,15,-5,-4,-16,-5,-7,-15,-18,6,-2,0,246,-11
10,-2,-4,-4,7,11,12,11,11,-9,-4,-14,-6,-5,-11,-15,3,-8,3,237,-13
13,2,0,2,7,18,19,14,8,-12,-2,-10,-6,0,-4,-10,1,-12,9,224,-15
14,6,2,7,7,23,23,17,7,-14,1,-5,-4,3,3,-5,0,-15,15,208,-14
10,6,0,8,4,24,23,17,6,-15,4,-2,-2,7,8,-3,-3,-17,18,187,-13
2,0,-6,3,1,19,16,13,4,-13,5,-2,-1,8,10,-3,-8,-16,18,160,-11
-8,-10,-16,-3,-3,10,5,7,2,-10,4,-3,-1,7,9,-6,-14,-14,16,129,-10
-18,-20,-24,-9,-8,2,-4,1,0,-7,1,-3,-3,5,7,-9,-20,-13,14,95,-8
-23,-25,-28,-9,-10,-1,-9,-2,0,-6,0,-2,-3,4,6,-8,-23,-12,15,61,-6
-23,-24,-28,-4,-11,-1,-9,-2,0,-5,1,0,-2,6,7,-4,-21,-11,17,27,-6
-21,-20,-25,2,-11,0,-4,-2,1,-6,5,4,0,7,10,1,-18,-10,19,-4,-6
-20,-17,-23,7,-12,0,0,-3,2,-7,8,8,3,9,12,7,-15,-8,20,-34,-7
-22,-18,-22,9,-15,-3,1,-6,2,-7,10,10,6,9,13,12,-15,-6,17,-60,-9
-26,-22,-23,6,-19,-8,0,-11,0,-7,9,9,6,8,11,13,-19,-4,13,-83,-10
-31,-28,-25,2,-23,-13,-2,-17,-1,-6,8,8,4,6,8,13,-25,-1,7,-101,-11
-34,-32,-27,0,-25,-16,-4,-22,-3,-4,7,7,2,4,6,12,-30,2,2,-113,-11
-32,-31,-25,1,-24,-14,-3,-22,-2,0,8,8,3,4,5,13,-31,8,-1,-121,-9
-27,-26,-21,5,-21,-10,0,-19,2,4,12,10,6,7,7,16,-25,15,-5,-126,-7
-23,-20,-16,8,-16,-6,3,-14,10,10,17,12,12,11,8,18,-17,22,-11,-129,-5
-19,-15,-12,10,-11,-3,5,-8,17,15,21,14,17,14,7,18,-7,30,-16,-133,-4
-17,-13,-9,9,-7,-3,4,-6,24,18,23,15,19,17,6,17,-1,36,-23,-135,-3
-18,-13,-8,7,-3,-5,1,-5,28,19,23,15,20,17,4,15,0,40,-31,-136,-2
-19,-14,-9,5,-1,-7,-1,-7,29,18,21,16,19,18,3,12,-1,42,-37,-133,-1
-19,-15,-9,4,1,-8,-1,-8,29,16,21,19,19,19,5,12,-3,43,-43,-128,0
-19,-14,-9,4,2,-6,0,-7,30,15,23,23,21,22,11,16,-3,43,-48,-120,0
-19,-14,-9,4,2,-4,1,-4,32,17,26,26,24,26,19,21,-1,44,-55,-111,1
-20,-16,-9,2,1,-4,0,0,34,19,30,29,27,30,27,26,2,44,-63,-102,2
-21,-19,-10,0,0,-4,-1,0,37,20,32,30,28,32,34,29,4,42,-70,-93,2
-20,-20,-11,0,-1,-3,-2,1,37,18,34,31,26,33,39,32,3,39,-74,-85,2
-16,-17,-9,3,-2,0,0,1,36,15,36,32,23,35,44,36,2,33,-72,-75,1
-10,-10,-5,10,-1,7,6,2,34,10,38,35,20,38,49,40,1,27,-66,-65,1
-4,-4,-2,16,0,13,13,3,33,6,39,39,19,42,54,45,0,22,-58,-54,0
0,0,0,19,0,16,18,4,34,4,39,43,20,45,57,49,0,17,-51,-44,-1
0,-1,-2,19,0,15,19,5,36,5,37,45,21,45,58,51,1,14,-46,-36,-4
-3,-5,-5,13,1,10,14,5,39,6,34,44,23,43,54,48,2,13,-42,-31,-7
-6,-10,-10,6,2,4,7,3,41,7,29,41,23,37,48,43,2,13,-39,-31,-8
-6,-9,-11,2,6,2,2,2,42,8,25,36,22,31,40,36,2,14,-33,-32,-7
0,0,-6,4,13,6,2,4,41,7,23,32,21,26,34,30,6,14,-23,-32,-4
9,11,0,9,20,12,5,7,41,8,23,28,19,23,29,24,11,16,-10,-30,0
17,22,6,13,27,17,6,10,40,9,22,23,17,20,24,17,16,18,1,-26,4
20,28,9,14,31,18,3,11,39,12,19,18,15,17,19,9,19,21,14,-19,8
19,28,7,10,32,14,-3,9,37,17,15,12,14,13,12,0,20,24,27,-11,9
12,22,1,3,31,6,-14,3,34,21,9,6,12,8,3,-10,17,28,42,0,9
5,15,-3,-2,29,0,-23,-1,31,24,4,1,8,3,-5,-18,13,29,59,13,8
0,11,-5,-4,27,-3,-28,-5,26,24,0,-2,5,0,-11,-22,9,29,81,31,6
0,11,-4,-2,26,-2,-28,-6,22,23,-1,-3,3,-2,-13,-22,9,27,106,51,4
0,14,0,3,27,2,-22,-4,18,19,-2,-2,3,-3,-10,-17,11,24,133,74,3
2,16,6,9,28,8,-14,0,15,16,-1,0,5,-2,-5,-10,14,21,159,98,1
1,16,9,12,27,12,-8,2,11,13,-1,1,7,-1,0,-2,15,17,184,120,0
-2,13,9,12,26,13,-4,3,6,10,-2,3,7,0,6,4,13,13,205,139,0
-7,8,6,10,23,14,-2,2,1,7,-2,4,5,1,12,10,9,9,223,155,-3
-12,3,1,7,20,14,0,2,-3,4,-3,5,1,4,17,16,3,5,237,167,-5
-17,0,-2,5,18,14,0,2,-7,0,-4,6,-3,6,23,21,-1,0,247,173,-7
-19,0,-5,5,16,15,2,4,-11,-3,-5,8,-7,8,28,26,-3,-4,254,173,-7
-19,1,-5,8,16,17,6,8,-12,-5,-6,10,-9,10,32,30,-2,-8,258,165,-6
-17,4,-3,13,17,20,12,13,-11,-6,-6,12,-9,12,35,33,1,-10,259,149,-4
-16,5,0,17,18,21,16,17,-8,-3,-6,13,-9,12,36,35,4,-9,257,122,0
-16,4,0,18,17,20,17,16,-6,0,-7,13,-10,10,33,33,3,-6,252,88,4
-16,1,-1,17,15,17,16,12,-4,2,-9,12,-12,6,29,30,0,-2,243,48,8
-15,0,-2,16,14,15,14,7,-2,5,-10,11,-12,1,23,25,-2,1,232,7,11
-12,-1,-2,15,13,13,13,5,1,10,-10,11,-10,-2,19,19,-1,6,219,-30,10
-7,0,-1,13,14,10,12,6,6,16,-11,11,-4,-4,14,12,4,12,203,-63,8
-3,0,0,10,15,6,10,9,14,23,-10,11,3,-6,10,5,13,18,186,-90,4
2,1,2,7,17,2,7,13,22,29,-10,11,10,-6,6,-1,21,23,170,-111,1
9,4,5,5,20,0,6,16,28,32,-10,11,16,-5,3,-6,27,29,156,-126,1
19,9,9,6,25,1,7,17,33,34,-8,13,20,-2,1,-8,31,35,146,-137,3
30,18,13,9,30,5,10,18,36,34,-4,16,23,1,3,-5,34,41,139,-142,8
39,26,17,14,35,10,13,18,39,35,0,19,26,6,7,0,37,47,133,-140,13
43,30,19,16,38,12,12,18,42,38,4,20,29,11,12,3,39,52,126,-126,15
43,28,17,14,38,10,8,19,44,42,6,18,31,15,15,5,41,55,116,-88,13
38,22,13,9,37,5,0,19,44,45,5,12,32,16,17,3,42,55,106,-9,7
32,14,7,2,34,1,-7,19,42,44,2,4,29,15,17,0,41,51,98,128,-1
26,6,3,-2,32,-1,-13,19,37,40,-3,-3,24,13,15,-6,41,45,91,337,-10
25,4,3,-2,31,0,-14,22,32,35,-7,-9,17,11,13,-10,41,37,88,611,-19
26,6,6,1,31,6,-9,26,27,30,-10,-11,12,9,14,-11,44,30,88,918,-26
24,5,6,3,27,9,-7,27,22,27,-12,-12,7,7,15,-11,43,24,85,1198,-31
14,-3,0,-1,19,5,-11,21,17,26,-16,-14,1,4,14,-12,33,18,78,1384,-34
2,-13,-6,-5,7,0,-13,12,11,25,-19,-15,-3,2,14,-10,18,13,68,1425,-33
-5,-17,-10,-4,-3,-1,-9,4,7,26,-18,-12,-6,4,19,-5,3,8,58,1299,-29
-9,-16,-8,0,-12,0,-1,1,7,27,-13,-5,-4,8,26,3,-6,7,47,1025,-21
-10,-12,-4,8,-19,5,8,1,10,31,-5,2,1,15,33,12,-9,8,34,656,-9
-7,-3,4,16,-21,11,17,4,18,34,4,12,10,22,41,22,-7,11,21,264,2
-3,6,13,23,-21,16,25,9,27,37,13,21,19,27,46,29,0,16,8,-87,14
0,13,19,25,-19,17,26,11,35,39,18,28,27,29,47,31,6,20,-5,-361,23
0,15,19,22,-18,13,21,8,39,37,19,32,28,27,43,30,8,22,-18,-543,29
1,16,16,17,-16,8,16,2,39,33,16,32,26,22,35,25,7,22,-29,-641,32
6,20,14,16,-12,5,12,-2,36,29,13,32,22,18,28,21,5,21,-35,-679,31
12,24,13,17,-9,4,11,-5,35,25,12,31,19,15,22,18,6,22,-39,-681,28
17,28,12,17,-6,2,8,-6,34,23,13,29,19,12,16,16,8,23,-43,-666,25
19,28,9,14,-4,-1,2,-7,34,21,15,26,20,10,12,12,11,24,-49,-646,22
20,27,6,9,-3,-5,-4,-8,35,20,16,22,22,8,8,9,13,24,-55,-623,20
20,26,3,5,-1,-8,-10,-7,35,20,18,18,23,6,6,6,16,24,-60,-598,19
21,25,1,2,1,-9,-15,-6,35,20,18,15,23,6,5,4,17,23,-64,-573,18
21,23,-1,0,4,-10,-19,-6,32,21,17,13,21,5,5,2,14,23,-67,-545,17
22,22,-3,-1,6,-8,-22,-6,29,20,15,11,18,6,6,2,10,22,-69,-515,17
24,23,-2,0,8,-4,-22,-4,26,20,13,11,15,9,10,3,7,21,-67,-481,16
25,24,0,3,11,0,-19,0,25,20,13,12,16,13,15,5,9,21,-66,-444,15
24,23,2,3,12,3,-17,7,26,23,14,13,19,17,21,8,13,22,-65,-405,13
20,17,1,0,12,3,-16,12,27,28,15,13,23,21,27,9,16,25,-67,-365,12
12,9,-1,-4,12,2,-16,15,28,32,15,13,27,25,32,11,17,29,-68,-328,11
7,3,-3,-8,12,2,-12,14,27,35,16,14,30,29,37,13,16,30,-66,-293,10
7,3,-3,-6,14,7,-3,14,25,35,18,16,32,33,44,17,14,31,-60,-260,9
10,8,0,0,17,15,9,13,22,31,20,19,32,37,49,22,14,30,-52,-230,9
15,14,5,5,21,22,21,13,19,26,22,21,33,40,51,25,14,27,-46,-203,10
16,17,9,8,24,25,27,13,16,21,23,21,32,39,48,24,15,24,-44,-177,9
12,14,9,6,23,20,24,9,13,15,21,18,29,35,40,19,13,21,-48,-154,8
3,6,5,-1,18,9,15,2,9,9,16,13,25,29,27,12,7,17,-57,-132,8
-8,-3,-1,-10,11,-3,1,-7,6,2,10,7,19,21,13,4,-1,12,-68,-111,7
-18,-11,-6,-17,3,-15,-10,-17,2,-6,4,3,11,13,2,0,-11,6,-77,-88,7
-23,-12,-8,-19,-3,-22,-16,-26,0,-16,0,0,4,7,-5,-2,-19,-1,-83,-63,7
-24,-9,-8,-17,-8,-25,-18,-32,-2,-26,-1,0,-1,3,-9,-2,-23,-7,-86,-37,8
-24,-6,-7,-16,-12,-27,-19,-36,-3,-33,-1,0,-6,0,-12,-1,-24,-11,-87,-12,9
-25,-6,-10,-17,-15,-31,-23,-39,-2,-37,-1,-2,-9,-3,-15,-2,-25,-13,-90,10,9
-30,-11,-16,-22,-18,-39,-31,-41,-1,-38,-2,-7,-12,-6,-21,-8,-28,-13,-93,28,7
-35,-19,-24,-29,-21,-47,-40,-44,-1,-37,-5,-13,-16,-11,-28,-16,-32,-12,-95,43,3
-38,-26,-31,-35,-22,-54,-48,-45,-1,-34,-8,-18,-18,-14,-34,-25,-36,-11,-95,56,0
-36,-28,-33,-35,-21,-54,-50,-42,-1,-31,-9,-22,-19,-15,-36,-31,-37,-11,-91,69,-4
-30,-23,-30,-30,-18,-47,-44,-35,-1,-28,-6,-23,-17,-13,-35,-33,-34,-10,-83,81,-7
-20,-13,-23,-23,-15,-37,-35,-23,0,-25,-1,-22,-12,-8,-30,-32,-27,-10,-72,94,-8
-11,-3,-16,-16,-12,-25,-27,-12,1,-21,3,-20,-7,-3,-24,-31,-19,-9,-62,107,-8
-6,2,-11,-11,-9,-16,-22,-3,2,-18,6,-19,-3,0,-20,-31,-12,-8,-54,119,-7
-5,3,-10,-12,-9,-12,-23,1,2,-15,5,-20,-2,0,-18,-33,-10,-8,-50,129,-5
-8,-2,-13,-17,-10,-13,-28,0,0,-13,0,-24,-4,-2,-20,-38,-14,-9,-48,138,-3
-10,-8,-17,-22,-11,-14,-32,-4,-3,-13,-5,-27,-8,-5,-22,-42,-21,-12,-47,148,-2
-9,-10,-17,-22,-10,-12,-28,-6,-6,-13,-9,-28,-10,-6,-21,-42,-25,-14,-44,158,-1
-5,-9,-14,-20,-8,-8,-21,-6,-7,-12,-10,-27,-10,-7,-19,-40,-24,-14,-41,170,-1
-2,-8,-11,-18,-6,-4,-13,-4,-8,-10,-11,-26,-8,-7,-16,-36,-21,-15,-39,180,-2
0,-8,-9,-16,-4,-3,-7,-4,-9,-11,-12,-26,-8,-9,-16,-34,-16,-16,-38,187,-3
1,-10,-9,-15,-4,-4,-5,-6,-12,-13,-15,-28,-11,-12,-18,-33,-14,-18,-38,192,-4
1,-13,-11,-17,-3,-7,-7,-9,-16,-18,-20,-32,-18,-18,-23,-34,-14,-22,-38,195,-5
1,-16,-14,-18,-3,-11,-10,-13,-19,-24,-24,-35,-25,-23,-27,-34,-15,-27,-37,196,-5
4,-15,-15,-19,-1,-13,-12,-16,-21,-29,-27,-35,-30,-27,-31,-33,-16,-31,-35,196,-5
7,-13,-15,-19,0,-15,-13,-16,-20,-32,-28,-34,-32,-28,-32,-30,-13,-32,-33,196,-5
8,-11,-15,-21,1,-17,-16,-15,-17,-32,-26,-31,-30,-29,-33,-28,-7,-30,-33,195,-5
5,-12,-16,-26,1,-21,-21,-14,-13,-30,-25,-28,-25,-29,-33,-26,-2,-26,-36,191,-5
0,-16,-19,-32,-1,-26,-27,-15,-10,-28,-25,-25,-21,-29,-35,-26,-1,-23,-42,184,-4
-3,-18,-21,-35,-4,-29,-31,-17,-10,-29,-26,-24,-21,-30,-37,-27,-3,-22,-47,173,-3
-3,-14,-19,-32,-5,-28,-29,-19,-13,-32,-26,-22,-24,-30,-37,-26,-6,-24,-49,158,-1
0,-6,-14,-25,-5,-21,-23,-19,-17,-37,-24,-20,-28,-30,-35,-24,-9,-27,-49,139,1
5,3,-7,-16,-3,-13,-15,-18,-20,-41,-20,-19,-31,-29,-32,-22,-9,-30,-48,112,5
7,9,-2,-12,-1,-8,-11,-16,-20,-42,-17,-19,-33,-28,-30,-22,-10,-31,-49,79,8
4,8,-1,-13,-1,-9,-13,-16,-19,-39,-13,-21,-32,-28,-29,-24,-11,-31,-53,41,11
-2,2,-4,-19,-3,-13,-18,-17,-16,-33,-11,-24,-29,-27,-28,-28,-14,-28,-58,1,13
-9,-5,-8,-25,-5,-17,-24,-20,-12,-26,-8,-25,-25,-26,-27,-31,-19,-24,-63,-37,14
-14,-10,-11,-28,-7,-19,-25,-23,-8,-22,-5,-24,-22,-24,-24,-32,-24,-21,-65,-71,15
-14,-11,-11,-26,-9,-16,-21,-25,-7,-21,-1,-20,-20,-21,-19,-31,-29,-21,-63,-100,17
-11,-8,-9,-20,-9,-10,-13,-25,-7,-24,1,-15,-19,-18,-13,-28,-31,-22,-59,-122,19
-8,-6,-7,-14,-9,-3,-4,-24,-8,-27,3,-10,-19,-17,-9,-24,-31,-24,-54,-139,19
-6,-7,-8,-12,-10,0,0,-25,-8,-28,3,-8,-18,-16,-6,-21,-31,-26,-51,-153,19
-8,-13,-13,-14,-13,-2,0,-27,-8,-27,1,-7,-16,-17,-5,-18,-31,-25,-50,-164,16
-12,-24,-21,-19,-17,-7,-3,-31,-8,-24,-1,-8,-14,-18,-6,-17,-31,-23,-51,-172,13
-15,-33,-27,-24,-21,-13,-8,-35,-6,-22,-3,-9,-12,-18,-6,-14,-31,-20,-52,-175,9
-14,-36,-28,-26,-24,-14,-9,-36,-4,-22,-3,-9,-9,-16,-4,-10,-28,-17,-51,-174,5
-8,-32,-23,-22,-22,-10,-4,-33,0,-22,0,-5,-5,-11,-1,-3,-21,-14,-47,-168,3
-1,-24,-15,-15,-19,-4,2,-26,4,-22,4,0,0,-6,3,5,-11,-10,-43,-159,1
5,-16,-6,-10,-15,0,8,-18,9,-20,9,4,4,-1,7,12,-1,-6,-40,-149,1
8,-11,-2,-8,-11,1,9,-13,13,-16,12,7,6,0,8,16,5,-2,-39,-140,1
8,-11,-1,-10,-10,-1,5,-12,15,-12,12,7,5,0,6,16,7,0,-41,-133,0
6,-14,-3,-15,-9,-6,-3,-13,15,-10,9,4,1,-4,1,13,5,3,-43,-127,-1
3,-18,-6,-20,-8,-12,-12,-15,14,-9,5,1,-3,-9,-5,7,3,3,-46,-122,-3
3,-18,-7,-22,-7,-14,-18,-16,12,-9,0,0,-7,-14,-12,0,3,3,-47,-116,-7
5,-14,-4,-19,-4,-11,-20,-14,13,-8,-1,-1,-7,-16,-16,-3,5,4,-46,-110,-10
8,-9,0,-15,0,-8,-18,-9,16,-4,0,0,-3,-16,-17,-8,9,6,-44,-104,-14
8,-7,0,-13,0,-6,-18,-6,19,0,0,1,0,-14,-18,-13,11,8,-43,-100,-17
6,-8,-1,-12,0,-7,-18,-5,21,3,2,1,3,-12,-19,-20,8,9,-42,-97,-19
7,-9,-3,-10,-1,-6,-16,-4,22,5,5,2,4,-8,-18,-23,4,9,-37,-94,-20
10,-6,-2,-4,0,-2,-10,-1,23,7,9,5,5,-2,-14,-24,2,9,-30,-89,-20
15,-1,1,3,2,3,-3,3,25,9,15,10,6,4,-8,-21,4,10,-22,-81,-20
20,4,4,10,5,7,1,9,28,11,20,15,9,11,-2,-17,8,11,-17,-73,-20
22,7,6,15,7,9,4,14,31,13,24,20,12,14,3,-12,13,13,-16,-64,-20
21,5,5,15,8,7,2,16,33,14,25,23,15,15,6,-7,17,13,-19,-55,-21
16,0,2,11,6,1,-2,14,32,11,24,23,13,11,7,-4,17,10,-26,-46,-22
11,-6,-1,8,3,-4,-5,9,26,4,20,22,8,5,5,-1,12,4,-30,-38,-23
9,-6,-2,8,0,-5,-3,4,18,-5,17,21,0,0,6,4,6,-5,-31,-27,-23
10,-1,1,14,0,-1,4,1,10,-16,16,23,-6,-4,8,13,2,-14,-26,-14,-22
12,5,6,21,-1,3,14,0,4,-24,17,26,-10,-5,13,23,0,-21,-21,0,-20
10,7,9,25,-3,5,20,-1,0,-27,17,28,-12,-5,16,32,-1,-26,-18,15,-19
1,2,5,23,-9,0,19,-6,-1,-27,16,28,-12,-5,18,38,-5,-28,-19,30,-19
-10,-7,-2,17,-17,-7,14,-12,-2,-24,14,25,-11,-6,17,42,-10,-28,-23,45,-20
-21,-18,-11,10,-25,-16,8,-20,-4,-20,10,21,-10,-7,15,42,-16,-27,-27,62,-21
-29,-26,-19,4,-32,-23,3,-26,-7,-17,6,17,-10,-9,11,40,-21,-27,-30,82,-23
-31,-28,-22,3,-36,-25,2,-30,-10,-15,2,13,-10,-10,8,37,-24,-26,-29,102,-24
-27,-25,-21,4,-37,-23,3,-31,-13,-14,0,10,-10,-11,5,32,-24,-25,-26,121,-24
-21,-20,-18,6,-36,-21,2,-30,-12,-13,-2,8,-8,-12,3,26,-22,-24,-24,136,-23
-17,-18,-16,4,-33,-21,-2,-29,-10,-9,-5,5,-5,-13,0,18,-20,-21,-23,143,-21
-16,-20,-17,-1,-31,-25,-11,-28,-5,-5,-8,1,-3,-14,-4,7,-20,-17,-25,141,-20
-17,-23,-20,-9,-29,-30,-21,-29,-1,-2,-10,-2,-1,-15,-9,-2,-21,-13,-28,131,-19
-16,-24,-22,-15,-25,-33,-28,-30,3,1,-11,-6,0,-14,-13,-11,-20,-8,-30,114,-17
-11,-19,-22,-15,-20,-31,-30,-27,8,4,-9,-6,3,-11,-13,-16,-16,-3,-30,94,-13
0,-8,-16,-10,-12,-24,-26,-21,15,8,-3,-3,8,-5,-9,-16,-6,2,-27,70,-9
12,6,-7,-1,-3,-12,-18,-11,23,14,4,1,16,3,-1,-13,6,8,-23,42,-5
24,18,0,6,4,-2,-11,-2,31,20,12,6,24,12,6,-9,19,12,-18,9,-1
30,24,3,9,10,3,-9,2,36,26,16,10,29,18,13,-6,27,15,-14,-27,0
31,25,4,8,13,6,-10,4,37,30,18,10,32,22,17,-4,30,16,-10,-65,1
28,21,1,4,14,6,-10,3,33,32,16,9,30,23,20,-3,27,14,-5,-101,2
23,17,0,2,14,7,-9,1,27,32,14,8,27,24,23,-1,23,11,0,-129,3
19,15,0,1,12,9,-4,0,21,30,11,8,23,25,28,3,18,8,5,-147,4
15,14,0,3,9,12,1,0,15,28,10,10,21,26,33,10,15,4,8,-156,6
12,15,1,6,6,16,9,0,10,26,10,12,19,27,38,19,13,0,10,-157,7
8,15,2,10,3,18,17,0,5,22,9,15,16,26,41,27,10,-5,10,-154,7
3,13,2,12,-1,19,22,-3,0,16,7,15,10,21,40,33,5,-11,7,-144,6
-1,9,0,13,-7,17,24,-10,-7,9,2,14,1,13,35,36,-2,-18,2,-117,5
-6,5,-2,13,-11,15,26,-17,-14,0,-2,11,-9,4,27,37,-11,-26,-1,-57,3
-8,4,-3,13,-14,13,28,-22,-19,-8,-9,8,-19,-6,17,36,-19,-34,-3,55,-1
-9,3,-5,11,-15,10,29,-24,-23,-16,-15,4,-27,-16,7,32,-21,-41,-6,235,-7
-10,0,-7,5,-14,6,25,-24,-26,-21,-20,-1,-32,-26,-3,25,-19,-46,-8,484,-15
-11,-1,-9,-2,-12,1,20,-22,-28,-24,-25,-6,-35,-35,-13,16,-14,-50,-10,779,-23
-9,-3,-10,-11,-7,-3,14,-19,-28,-25,-29,-10,-37,-41,-22,7,-7,-51,-9,1075,-30
-4,-2,-9,-15,-1,-4,10,-13,-28,-23,-30,-13,-37,-44,-28,0,-1,-49,-5,1312,-33
3,3,-4,-15,4,-1,10,-7,-26,-18,-27,-12,-34,-41,-30,-4,4,-43,0,1434,-31
13,12,2,-9,10,4,13,-1,-22,-9,-22,-7,-27,-34,-26,-3,8,-33,8,1403,-24
21,22,10,-1,14,10,16,4,-14,2,-14,-1,-18,-24,-19,0,12,-20,15,1213,-15
27,28,18,5,15,14,17,9,-4,17,-6,4,-5,-12,-9,3,16,-7,18,893,-6
27,30,22,10,13,13,14,13,6,33,1,9,9,-1,0,7,19,7,17,503,1
21,26,21,9,10,9,6,14,16,48,7,12,22,8,9,10,20,20,13,108,7
13,19,17,5,5,3,-2,14,24,60,11,14,33,16,17,12,18,31,9,-234,11
7,14,13,3,2,0,-7,13,29,66,15,17,41,24,26,16,15,40,8,-490,15
4,14,12,5,1,2,-5,13,33,68,20,20,47,32,36,22,11,47,10,-649,20
5,17,11,10,1,7,-1,13,37,68,25,24,52,41,46,29,9,53,15,-725,24
5,19,11,13,1,11,4,13,40,67,31,28,56,47,55,36,7,58,20,-743,28
4,18,10,14,0,12,8,11,43,67,34,31,59,51,60,39,4,61,23,-729,28
-1,12,8,10,0,9,7,8,45,66,34,31,59,51,61,39,1,62,24,-702,26
-9,2,3,3,-3,2,3,5,44,64,30,30,57,48,59,36,-2,62,23,-671,21
-18,-8,-1,-5,-6,-4,-1,2,42,61,25,27,52,44,54,33,-7,60,20,-640,16
-28,-19,-9,-14,-9,-13,-7,-2,36,56,18,23,44,37,47,29,-14,56,16,-609,12
-36,-27,-17,-21,-13,-20,-12,-10,27,47,11,19,33,30,38,25,-23,51,13,-578,10
-37,-28,-22,-22,-16,-22,-10,-17,18,37,7,17,23,24,32,24,-30,44,12,-542,10
-33,-22,-22,-17,-16,-18,-3,-20,11,28,6,17,15,18,28,25,-30,37,11,-500,11
-25,-12,-17,-9,-15,-11,5,-19,8,23,6,18,10,14,25,27,-25,32,10,-456,13
-16,-2,-10,-1,-13,-4,13,-16,8,20,8,20,9,10,22,29,-17,30,7,-412,14
-7,4,-4,5,-11,0,17,-12,11,20,10,23,10,8,20,30,-6,29,4,-372,13
-1,7,0,7,-9,2,16,-7,15,22,11,25,12,7,17,29,2,31,0,-335,12
2,6,1,3,-8,0,11,-5,17,24,10,25,14,6,13,26,9,33,-5,-304,10
3,3,0,-2,-7,-5,3,-4,19,26,9,24,17,7,9,22,12,35,-9,-278,9
3,0,0,-9,-6,-11,-3,-4,21,28,9,22,19,8,7,20,15,38,-11,-253,8
5,0,0,-14,-4,-13,-7,-1,23,32,10,21,24,11,6,19,19,41,-11,-227,8
6,2,4,-16,-1,-13,-8,3,27,35,13,20,28,15,8,18,25,44,-10,-201,9
8,3,7,-17,0,-11,-7,7,30,39,15,20,33,17,11,18,28,47,-6,-176,9
10,4,8,-15,1,-7,-5,10,31,40,17,19,36,20,14,17,30,49,0,-153,9
11,6,10,-11,3,-3,-2,12,31,38,18,18,38,22,18,15,30,48,6,-131,9
12,6,10,-8,3,0,0,14,30,37,18,17,38,24,20,12,30,47,12,-110,9
9,5,9,-7,3,0,-2,15,28,35,18,15,36,24,21,8,29,46,15,-89,9
3,3,6,-9,1,-2,-6,14,26,34,16,12,34,24,21,3,25,45,15,-68,9
-2,0,2,-11,-1,-6,-12,11,22,32,14,8,29,22,20,0,18,42,14,-48,8
-5,1,0,-11,-2,-8,-14,9,19,29,11,6,23,21,20,-1,13,38,14,-27,7
-2,8,4,-4,0,-6,-9,10,16,25,11,7,19,22,22,0,11,33,16,-5,5
3,19,13,5,3,0,0,15,16,21,13,10,19,23,25,4,12,28,20,18,4
8,28,20,14,8,5,6,21,16,19,14,13,18,24,27,6,14,23,21,40,2
8,29,24,17,10,6,7,23,17,17,13,15,17,23,24,5,13,18,19,60,1
1,24,22,14,10,2,3,23,15,14,11,14,13,18,18,0,8,14,14,77,0
-6,15,17,8,7,-3,-2,19,12,11,8,11,9,12,9,-4,1,10,9,93,0
-13,7,11,2,4,-7,-6,15,8,7,5,8,3,5,2,-7,-4,6,5,107,0
-15,2,8,0,1,-8,-7,11,5,2,4,7,0,0,-2,-9,-7,3,2,121,-1
-13,2,7,1,0,-6,-4,9,3,-3,5,8,-1,-2,-5,-7,-6,0,1,136,-2
-9,4,8,5,-1,-2,0,8,2,-9,7,10,-1,-4,-5,-4,-3,-3,1,149,-5
-5,6,10,7,-2,0,4,7,2,-14,8,11,0,-6,-5,-2,0,-7,1,162,-8
-6,5,9,6,-4,0,5,5,1,-17,8,11,1,-9,-7,-2,0,-11,0,173,-10
-11,0,4,0,-7,-4,0,0,-1,-18,5,8,0,-15,-12,-4,-4,-15,-1,182,-11
-17,-8,-2,-8,-11,-11,-5,-5,-5,-19,0,4,-2,-21,-18,-8,-12,-20,-3,188,-12
-23,-14,-8,-15,-13,-18,-11,-11,-10,-21,-4,0,-7,-28,-23,-12,-21,-25,-6,195,-10
-24,-15,-10,-17,-14,-21,-12,-12,-14,-23,-7,-1,-11,-32,-25,-13,-26,-30,-8,202,-9
-22,-11,-9,-14,-14,-21,-10,-10,-15,-23,-8,-1,-13,-33,-24,-12,-26,-32,-9,209,-6
-18,-5,-8,-9,-13,-19,-7,-6,-15,-22,-6,0,-12,-31,-20,-10,-21,-32,-11,216,-5
-15,0,-6,-4,-12,-16,-3,-2,-14,-21,-5,0,-12,-30,-17,-9,-16,-32,-13,221,-3
-14,2,-6,-2,-11,-14,-1,0,-14,-20,-6,-1,-12,-30,-14,-8,-14,-30,-14,221,-2
-15,1,-7,-1,-11,-12,0,0,-16,-19,-8,-4,-14,-30,-12,-8,-16,-28,-13,216,0
-15,0,-8,-1,-11,-10,1,-2,-19,-20,-12,-7,-17,-30,-10,-7,-21,-25,-10,208,2
-15,-1,-8,-1,-10,-7,3,-4,-22,-20,-15,-8,-19,-28,-6,-5,-25,-22,-6,196,5
-13,-1,-7,-1,-9,-5,6,-3,-22,-19,-15,-7,-18,-23,0,-1,-25,-18,-4,182,8
-11,-2,-6,-1,-8,-5,6,-1,-19,-15,-12,-5,-13,-16,9,1,-22,-11,-4,164,9
-10,-3,-7,-3,-9,-8,4,0,-15,-9,-8,-4,-6,-10,16,3,-17,-4,-6,142,10
-10,-7,-10,-6,-11,-12,0,0,-9,-2,-3,-4,1,-5,21,4,-14,2,-8,115,9
-11,-10,-14,-10,-12,-17,-5,0,-4,2,0,-4,6,-1,22,4,-14,8,-8,82,7
-10,-12,-16,-13,-13,-19,-9,-4,0,6,1,-4,9,1,23,5,-16,13,-6,46,6
-8,-13,-17,-14,-13,-20,-10,-7,2,7,3,-3,10,5,23,8,-19,16,-1,8,5
-6,-12,-18,-14,-12,-19,-11,-10,6,8,6,0,11,9,24,13,-21,19,1,-29,5
-6,-13,-18,-16,-13,-20,-14,-11,10,8,9,3,12,12,25,18,-20,21,0,-63,6
-9,-17,-20,-20,-16,-23,-19,-11,14,8,10,6,14,14,24,21,-18,23,-5,-93,6
-15,-23,-23,-26,-19,-29,-26,-11,18,8,10,7,14,13,22,21,-17,23,-13,-116,5
-20,-29,-25,-30,-23,-34,-32,-11,19,9,9,7,15,11,17,20,-16,22,-21,-134,4
-20,-30,-24,-29,-24,-35,-33,-12,19,8,7,7,15,9,13,19,-15,19,-25,-146,2
-14,-25,-20,-22,-23,-30,-26,-11,17,5,6,8,14,7,10,20,-13,14,-23,-153,0
-5,-16,-13,-11,-20,-21,-15,-9,14,0,7,11,14,7,9,23,-10,7,-17,-155,0
4,-7,-8,0,-17,-11,-2,-7,12,-4,9,13,13,5,10,26,-7,0,-12,-153,-1
9,-3,-5,6,-15,-4,7,-5,10,-8,10,13,10,2,10,26,-6,-5,-10,-149,-1
6,-7,-7,5,-16,-3,10,-5,7,-11,9,10,5,-2,7,23,-8,-10,-13,-145,-1
-1,-17,-13,0,-19,-6,8,-7,3,-13,5,3,-2,-9,2,16,-13,-16,-19,-142,-2
-10,-28,-18,-6,-22,-9,5,-9,0,-15,0,-3,-10,-15,-2,7,-19,-21,-25,-140,-3
-15,-34,-19,-8,-23,-9,6,-10,-5,-18,-2,-7,-16,-19,-5,1,-23,-25,-26,-138,-5
-14,-32,-15,-5,-21,-3,12,-8,-10,-21,-2,-9,-19,-19,-5,-1,-22,-28,-23,-136,-6
-9,-25,-8,0,-18,4,21,-4,-12,-22,0,-7,-18,-16,-2,-1,-16,-27,-18,-132,-6
-3,-18,-1,6,-16,11,27,0,-12,-21,3,-4,-14,-10,1,0,-7,-22,-13,-127,-7
0,-15,2,8,-14,14,28,3,-11,-17,4,-3,-8,-5,4,-1,0,-15,-10,-122,-7
0,-17,1,5,-14,12,24,3,-10,-11,3,-6,-4,-2,4,-5,4,-8,-9,-117,-6
-2,-21,-1,0,-14,8,16,1,-10,-5,0,-10,-2,-2,3,-11,5,-2,-10,-110,-5
-2,-25,-3,-2,-13,4,10,0,-10,0,-4,-15,-2,-2,2,-15,5,1,-9,-101,-4
0,-25,-2,-2,-10,3,9,1,-11,2,-6,-17,-2,-2,4,-16,5,3,-6,-91,-3
7,-19,2,3,-4,7,12,5,-9,5,-5,-15,-1,0,7,-12,10,4,0,-80,-4
17,-9,9,11,2,13,18,12,-4,9,0,-9,3,3,12,-4,18,7,7,-70,-6
26,-1,17,17,9,17,21,18,3,13,4,-2,9,8,16,3,27,12,13,-63,-8
31,3,21,18,14,18,20,21,12,17,7,1,15,11,17,9,34,18,18,-59,-9
35,4,22,15,18,16,15,20,21,20,8,1,18,11,13,11,37,25,20,-57,-9
38,4,21,11,22,13,9,16,28,20,6,0,18,10,8,10,37,31,21,-54,-8
42,7,20,8,25,11,6,12,33,19,4,-3,18,7,4,8,37,36,23,-47,-6
49,11,19,9,30,12,7,11,36,17,3,-6,19,4,2,6,40,40,24,-35,-4
55,16,20,11,34,14,11,12,39,16,3,-7,21,3,2,5,46,42,24,-20,-2
59,20,22,13,37,16,14,15,41,15,5,-7,23,3,2,5,52,42,22,-5,-1
61,21,22,14,38,16,16,17,43,14,6,-8,25,2,2,3,57,42,19,8,0
60,18,20,12,38,13,15,16,43,13,5,-8,24,2,0,0,57,40,14,18,1
59,14,18,9,37,10,12,13,42,12,4,-9,21,2,0,-2,53,38,9,27,1
58,11,16,8,36,7,10,9,41,12,2,-9,17,2,-1,-5,48,37,4,37,0
60,10,16,8,36,7,9,5,41,11,2,-7,15,4,-1,-6,43,37,1,51,0
61,11,17,9,35,7,8,5,43,12,3,-4,15,8,1,-6,43,37,-1,69,0
61,11,19,8,35,6,6,7,46,14,5,-1,17,11,4,-4,45,37,-4,90,0
59,10,20,7,34,5,3,12,48,16,8,2,20,13,6,-2,49,36,-7,112,1
57,8,21,6,33,4,0,16,49,16,9,4,20,14,8,0,51,32,-9,130,1
55,8,22,7,30,5,-1,19,47,13,10,6,17,14,9,1,51,25,-7,143,2
55,10,24,10,28,9,0,21,44,7,10,8,13,13,10,3,50,16,-2,149,1
58,14,26,14,26,14,5,22,40,0,9,9,8,11,10,5,49,8,4,147,0
61,20,29,19,24,19,12,22,37,-8,10,10,4,11,9,6,49,1,10,137,0
67,27,33,24,24,24,21,23,37,-13,13,13,5,13,10,9,53,0,16,119,1
72,33,37,28,23,26,27,25,41,-14,17,16,10,16,13,11,60,1,18,92,3
67,27,31,22,19,18,23,20,45,-12,20,16,16,16,12,10,60,5,13,55,6
56,14,19,10,12,4,11,9,45,-12,18,13,16,14,9,5,52,6,5,10,10
47,4,8,2,6,-5,3,-1,43,-16,17,9,14,13,7,2,42,4,1,-34,13
44,2,3,1,5,-7,2,-5,41,-20,18,7,12,14,9,4,38,1,0,-71,16
42,2,2,2,5,-7,4,-5,41,-21,20,6,10,15,12,7,38,-1,1,-101,17
41,2,3,4,7,-6,6,-2,41,-19,20,6,9,17,14,10,39,-3,2,-123,16
41,4,5,5,11,-4,9,0,41,-17,20,6,8,18,15,13,42,-4,4,-139,14
38,3,6,3,13,-6,7,1,41,-14,17,5,7,18,14,13,41,-4,3,-153,13
32,-2,2,-3,13,-12,0,-2,39,-12,11,2,5,15,10,9,36,-4,-1,-165,12
27,-8,-1,-11,11,-19,-7,-9,35,-12,4,-2,0,9,4,2,28,-5,-6,-175,10
26,-7,-3,-15,11,-21,-11,-13,32,-14,0,-5,-2,5,0,-2,24,-7,-9,-177,9
30,0,1,-13,13,-20,-9,-11,32,-15,0,-5,0,4,0,-5,28,-7,-11,-162,7
36,8,6,-10,17,-17,-6,-6,36,-14,3,-4,2,4,0,-7,37,-7,-12,-119,5
38,12,8,-11,19,-16,-7,-2,39,-13,6,-3,4,4,-1,-12,44,-6,-13,-32,1
38,13,5,-15,21,-18,-11,-2,40,-15,5,-5,3,1,-4,-19,46,-8,-12,113,-3
39,13,2,-18,24,-18,-13,-3,37,-19,3,-8,-1,-1,-7,-26,44,-11,-8,326,-9
43,15,0,-18,28,-14,-12,-4,32,-24,0,-11,-7,-3,-10,-32,44,-13,0,598,-15
48,17,0,-16,33,-9,-9,-2,27,-27,-2,-13,-12,-5,-13,-37,45,-14,9,897,-21
52,18,0,-14,37,-6,-8,0,23,-28,-3,-15,-14,-6,-15,-41,49,-13,16,1167,-26
53,17,-1,-14,37,-6,-9,0,21,-27,-4,-18,-14,-7,-18,-44,53,-10,18,1347,-28
50,14,-1,-14,36,-8,-12,2,22,-23,-4,-19,-11,-8,-21,-47,58,-4,16,1389,-26
45,11,0,-15,32,-11,-15,3,26,-16,-3,-18,-5,-8,-23,-46,61,2,11,1271,-20
40,9,1,-15,27,-14,-17,2,32,-7,-1,-16,0,-7,-23,-42,61,11,6,1007,-10
37,7,5,-12,23,-13,-17,2,37,1,2,-13,7,-4,-22,-35,58,20,2,644,1
36,9,10,-8,20,-9,-12,2,41,10,6,-8,12,0,-18,-25,54,28,0,250,13
37,13,16,-1,19,-3,-6,5,45,18,11,-3,18,5,-13,-16,50,34,0,-110,23
37,16,20,2,18,1,-1,8,49,26,16,0,24,11,-8,-8,47,39,-1,-396,30
33,15,20,3,17,1,-1,10,52,34,19,2,28,14,-5,-5,44,43,-6,-589,33
26,10,17,0,15,-3,-6,10,53,40,20,1,30,15,-5,-5,40,44,-15,-697,32
17,5,12,-5,12,-10,-12,7,53,42,19,0,29,14,-7,-7,34,44,-24,-739,29
11,2,8,-8,11,-13,-15,1,51,39,19,0,28,13,-8,-7,29,41,-29,-739,24
9,5,9,-5,13,-11,-13,-2,47,35,21,1,27,14,-6,-4,25,38,-30,-715,21
11,11,11,0,16,-6,-6,-5,43,30,24,4,27,18,-1,0,24,35,-28,-679,19
13,16,13,4,18,-2,-1,-7,38,28,27,7,29,22,4,3,22,33,-25,-638,18
10,15,12,4,19,-1,-2,-9,33,27,28,7,30,25,7,4,19,31,-24,-598,18
2,8,7,0,18,-5,-9,-12,28,30,27,5,29,27,7,2,12,30,-24,-562,19
-8,0,1,-8,16,-12,-19,-15,24,32,24,0,26,26,5,-2,3,28,-26,-529,19
-18,-9,-4,-16,15,-18,-29,-16,20,32,20,-4,20,25,1,-7,-4,26,-26,-499,19
-24,-12,-6,-19,17,-19,-32,-16,16,30,18,-7,16,23,0,-10,-8,23,-22,-469,18
-23,-10,-5,-17,21,-15,-30,-13,13,25,18,-7,14,23,1,-10,-7,20,-14,-439,16
-19,-5,-1,-11,26,-9,-22,-9,10,19,20,-4,14,23,5,-7,-3,16,-5,-406,14
-15,-1,2,-5,29,-5,-16,-5,7,14,21,-1,14,21,9,-5,2,12,1,-372,10
-16,-2,2,-3,28,-7,-15,-4,2,9,19,-1,13,18,9,-4,4,7,3,-338,7
-22,-8,-1,-6,24,-13,-19,-7,-3,5,15,-3,10,13,6,-6,0,1,1,-305,3
-31,-17,-7,-12,18,-22,-27,-12,-9,0,10,-7,4,7,0,-9,-6,-4,-4,-274,1
-40,-23,-11,-16,12,-29,-33,-16,-15,-6,4,-10,-3,1,-7,-13,-13,-11,-9,-246,0
-46,-25,-10,-17,8,-31,-34,-18,-20,-12,1,-12,-9,-3,-12,-15,-18,-17,-14,-220,0
-47,-22,-5,-13,5,-27,-28,-16,-22,-18,0,-11,-13,-6,-16,-14,-19,-20,-16,-194,0
-46,-17,0,-6,4,-20,-18,-12,-23,-21,0,-9,-15,-9,-19,-12,-16,-21,-18,-168,0
-44,-12,7,0,4,-13,-7,-7,-24,-23,0,-9,-15,-12,-22,-10,-12,-22,-19,-143,-1
-43,-10,10,4,4,-8,1,-4,-27,-22,-1,-11,-16,-17,-26,-11,-11,-22,-20,-119,-4
-42,-10,10,6,3,-5,7,-4,-31,-22,-5,-16,-18,-22,-30,-14,-13,-22,-20,-98,-6
-42,-13,7,5,2,-4,11,-6,-36,-21,-10,-23,-21,-27,-34,-20,-16,-23,-19,-78,-7
-41,-15,3,5,1,-3,13,-8,-40,-21,-14,-30,-24,-30,-37,-25,-19,-24,-15,-61,-6
-36,-14,2,6,3,0,15,-9,-42,-21,-17,-36,-25,-31,-38,-29,-19,-25,-8,-43,-3
-28,-10,3,10,6,4,19,-5,-41,-18,-15,-37,-23,-27,-35,-30,-15,-23,0,-23,0
-24,-9,3,9,9,6,16,-1,-38,-13,-14,-37,-20,-22,-31,-30,-11,-19,7,-3,0
-27,-17,-2,0,9,0,4,-3,-35,-8,-17,-39,-18,-17,-30,-33,-12,-15,10,14,-2
-29,-24,-9,-9,8,-6,-7,-8,-35,-6,-21,-41,-17,-14,-28,-36,-17,-13,14,33,-4
-25,-22,-10,-12,10,-6,-11,-9,-34,-5,-23,-41,-15,-8,-23,-37,-17,-11,23,55,-5
-16,-15,-5,-9,14,-2,-11,-4,-32,-3,-21,-38,-8,-2,-16,-34,-10,-7,34,78,-6
-6,-6,1,-4,19,1,-9,2,-27,0,-18,-34,-1,3,-9,-31,0,-3,42,101,-4
2,0,7,0,24,5,-9,9,-21,2,-13,-29,5,7,-5,-29,10,1,49,122,-2
6,4,11,1,27,6,-12,14,-16,5,-10,-25,10,8,-4,-27,19,5,51,140,-1
4,2,11,-1,27,3,-18,15,-13,5,-9,-23,11,4,-7,-29,22,7,50,155,-1
0,-3,6,-5,26,-2,-25,12,-12,1,-12,-24,7,-3,-14,-33,20,5,46,168,-3
-3,-3,3,-5,25,-3,-26,9,-15,-6,-16,-24,0,-12,-22,-37,16,0,46,181,-6
1,5,6,3,28,2,-15,11,-18,-15,-16,-23,-6,-17,-26,-37,16,-7,51,194,-8
10,20,15,17,33,15,0,19,-19,-22,-13,-19,-8,-19,-26,-34,21,-13,58,207,-10
16,31,23,29,36,26,15,26,-18,-25,-9,-16,-8,-18,-25,-31,26,-16,62,216,-11
15,33,25,34,36,32,22,30,-19,-25,-8,-15,-8,-19,-25,-31,26,-18,63,222,-12
8,27,22,32,32,31,24,29,-22,-24,-11,-17,-10,-21,-26,-34,20,-20,61,224,-12
0,16,17,27,26,27,26,24,-28,-24,-16,-22,-15,-24,-27,-39,11,-23,58,226,-13
-9,6,11,23,19,21,29,20,-35,-24,-21,-25,-20,-27,-28,-43,2,-27,55,226,-14
-15,0,7,21,12,15,36,17,-41,-24,-25,-27,-25,-28,-27,-45,-4,-30,54,225,-15
-18,-1,4,20,6,9,44,16,-47,-24,-26,-27,-28,-27,-25,-44,-8,-33,54,221,-15
-20,0,2,20,0,6,51,15,-50,-24,-24,-25,-28,-25,-21,-42,-10,-33,54,214,-15
-21,1,0,19,-2,4,53,16,-50,-22,-21,-22,-26,-22,-15,-39,-9,-31,55,204,-14
-25,1,-3,15,-5,1,50,17,-48,-18,-18,-21,-22,-19,-11,-36,-9,-27,55,191,-14
-30,-2,-9,6,-7,-2,41,16,-46,-13,-17,-20,-19,-19,-8,-33,-12,-21,53,173,-13
-34,-8,-14,-2,-8,-6,30,14,-43,-7,-17,-21,-16,-19,-6,-29,-18,-15,52,152,-12
-36,-12,-17,-8,-7,-8,23,12,-41,-3,-18,-20,-14,-17,-2,-23,-24,-11,51,126,-11
-34,-12,-16,-9,-5,-8,22,14,-38,0,-16,-16,-10,-14,3,-13,-28,-8,51,98,-10
-30,-9,-12,-7,-4,-6,25,17,-35,1,-13,-11,-6,-8,12,-1,-29,-6,50,67,-7
-27,-4,-8,-3,-3,-3,29,21,-33,1,-7,-5,0,-3,21,11,-28,-6,49,36,-5
-25,0,-3,0,-3,-1,35,23,-32,0,-2,0,4,1,29,23,-26,-8,47,2,-2
-25,2,0,1,-4,0,39,23,-32,-4,1,2,6,3,33,32,-26,-11,45,-30,0
-25,2,1,3,-6,0,42,21,-34,-8,3,4,5,3,34,38,-29,-15,44,-62,0
-26,2,4,5,-9,0,44,17,-37,-12,4,6,1,2,33,41,-32,-19,43,-92,0
-26,2,6,7,-12,0,45,15,-40,-16,4,8,-5,0,30,42,-35,-24,41,-116,-2
-25,2,8,9,-14,0,46,14,-42,-18,3,8,-11,-2,27,41,-36,-28,38,-135,-3
-26,1,9,9,-16,0,43,14,-42,-18,2,8,-16,-5,23,38,-35,-29,32,-148,-4
-28,0,8,5,-17,-1,38,14,-38,-16,1,7,-19,-7,18,33,-33,-29,23,-157,-4
-31,-4,5,0,-18,-5,30,12,-32,-12,0,4,-19,-9,12,27,-32,-27,14,-161,-3
-32,-9,1,-6,-17,-8,22,7,-26,-9,-1,1,-18,-9,7,20,-32,-24,7,-163,-2
-30,-12,-2,-11,-15,-10,16,2,-21,-6,-2,-1,-15,-7,3,13,-34,-18,3,-162,-1
-26,-12,-6,-12,-13,-9,12,-2,-17,-5,-3,-3,-12,-3,1,8,-35,-12,2,-159,0
-20,-11,-9,-11,-10,-7,10,-6,-14,-3,-4,-6,-8,0,0,4,-34,-5,4,-154,1
-15,-9,-10,-10,-8,-6,8,-7,-12,0,-3,-9,-4,4,0,0,-32,3,5,-147,2
-14,-9,-13,-10,-5,-7,4,-6,-9,5,-3,-13,0,7,0,-4,-28,11,5,-141,2
-17,-11,-16,-13,-3,-12,-1,-6,-5,11,-3,-15,4,8,-1,-9,-26,19,1,-135,1
-22,-13,-19,-17,-3,-17,-7,-6,-3,15,-2,-17,7,8,-3,-14,-27,23,-2,-129,1
-27,-13,-19,-18,-2,-18,-9,-8,-3,15,0,-15,8,8,-3,-16,-30,24,-5,-124,1
-28,-7,-14,-13,-1,-14,-5,-8,-5,11,2,-10,8,8,-2,-14,-32,20,-5,-119,3
-26,1,-6,-2,-1,-5,2,-6,-10,3,7,-3,7,8,0,-10,-33,13,-3,-113,4
-24,10,1,8,-2,2,9,-4,-16,-6,11,2,5,6,0,-5,-33,4,-1,-107,5
-25,14,7,16,-5,7,13,-3,-22,-16,12,5,1,2,-1,0,-33,-5,-2,-100,3
-30,11,8,18,-10,6,10,-4,-29,-25,10,5,-5,-3,-7,0,-34,-15,-6,-93,0
-38,4,5,17,-17,0,2,-8,-35,-32,5,2,-12,-12,-15,0,-37,-24,-14,-84,-4
-46,-4,0,14,-24,-7,-5,-13,-40,-38,0,0,-20,-19,-22,1,-41,-31,-23,-74,-7
-50,-9,-3,14,-31,-11,-8,-18,-43,-43,-5,-2,-24,-22,-24,5,-43,-36,-29,-64,-10
-52,-9,-4,18,-35,-10,-7,-20,-45,-46,-7,-2,-26,-22,-20,11,-43,-38,-33,-53,-10
-51,-8,-4,25,-38,-7,-2,-20,-47,-47,-8,0,-24,-18,-12,18,-41,-39,-34,-44,-9
-51,-8,-5,29,-41,-4,2,-19,-49,-47,-9,0,-20,-13,-3,24,-40,-39,-34,-36,-9
-55,-14,-10,28,-45,-4,3,-20,-51,-46,-11,0,-19,-11,3,27,-41,-39,-36,-31,-9
-61,-24,-17,22,-50,-9,1,-23,-55,-44,-15,-5,-20,-11,6,26,-46,-39,-40,-26,-9
-68,-35,-25,13,-54,-15,-1,-28,-58,-43,-20,-10,-23,-13,5,21,-50,-40,-42,-20,-10
-72,-42,-31,6,-55,-19,-1,-32,-59,-41,-23,-14,-26,-16,3,15,-53,-41,-43,-12,-11
-71,-43,-33,3,-54,-20,1,-32,-57,-40,-24,-17,-27,-17,0,9,-52,-41,-41,-2,-12
-64,-38,-29,4,-49,-16,7,-29,-53,-39,-24,-19,-26,-17,-3,3,-44,-42,-37,12,-13
-53,-28,-22,9,-41,-9,13,-21,-48,-38,-22,-21,-24,-17,-7,-2,-33,-42,-32,28,-14
-41,-17,-14,15,-33,-2,18,-12,-44,-38,-22,-24,-22,-18,-13,-11,-20,-42,-27,47,-16
-31,-9,-7,20,-25,3,18,-4,-41,-40,-24,-29,-23,-21,-21,-21,-10,-42,-25,66,-19
-24,-5,-3,23,-19,6,14,-1,-42,-43,-27,-36,-25,-27,-30,-32,-5,-44,-23,85,-21
-19,-1,0,25,-13,8,10,0,-44,-47,-31,-42,-29,-33,-37,-42,-4,-46,-22,103,-21
-16,2,4,27,-9,10,6,0,-47,-51,-34,-47,-32,-37,-42,-48,-4,-48,-20,120,-20
-13,7,9,28,-5,13,3,2,-47,-52,-34,-49,-32,-39,-42,-52,-3,-49,-20,135,-17
-13,10,11,27,-4,14,1,3,-47,-51,-33,-50,-31,-38,-41,-53,-2,-48,-21,146,-13
-13,11,11,24,-4,14,0,5,-46,-49,-33,-52,-31,-37,-38,-53,-2,-48,-25,150,-9
-14,9,8,19,-7,11,-3,4,-46,-46,-35,-54,-31,-38,-36,-54,-2,-47,-31,146,-6
-15,5,4,15,-10,6,-6,0,-46,-44,-38,-55,-34,-39,-35,-54,-7,-47,-36,135,-5
-16,0,-1,11,-13,2,-7,-4,-48,-44,-42,-56,-37,-41,-35,-52,-14,-47,-40,115,-6
-15,-3,-5,10,-15,-1,-7,-11,-48,-44,-45,-55,-41,-41,-34,-48,-21,-48,-42,90,-8
-14,-5,-7,10,-16,-3,-5,-16,-46,-43,-44,-50,-41,-39,-30,-41,-26,-46,-42,59,-9
-15,-6,-8,9,-17,-4,-4,-18,-40,-40,-38,-43,-37,-35,-26,-32,-28,-41,-42,27,-9
-19,-7,-10,5,-18,-8,-6,-19,-33,-35,-31,-36,-30,-29,-22,-23,-26,-35,-44,-6,-8
-25,-11,-13,0,-20,-13,-12,-19,-26,-30,-24,-30,-22,-24,-18,-16,-22,-28,-46,-38,-6
-29,-13,-15,-5,-22,-18,-17,-19,-20,-26,-18,-24,-14,-18,-15,-11,-19,-22,-47,-67,-3
-28,-12,-14,-6,-20,-19,-18,-18,-16,-23,-13,-19,-7,-13,-12,-7,-16,-18,-43,-91,-2
-21,-5,-9,-3,-16,-14,-14,-15,-14,-22,-9,-14,-2,-7,-7,-2,-12,-16,-35,-108,-2
-8,6,-2,3,-10,-5,-6,-11,-12,-22,-4,-8,1,-1,-1,2,-6,-15,-23,-118,-3
5,18,6,11,-3,4,2,-6,-8,-20,1,-3,6,5,5,6,0,-14,-12,-123,-7
17,30,13,17,3,13,9,0,0,-16,7,0,12,11,10,8,10,-9,-3,-123,-10
25,36,16,17,7,16,8,4,9,-9,11,2,17,14,13,6,20,-3,0,-118,-14
26,34,12,10,8,12,0,5,19,-2,12,0,20,15,11,0,26,4,-3,-101,-17
24,27,4,0,6,3,-13,1,26,2,9,-3,19,11,5,-11,28,10,-9,-59,-19
25,24,0,-5,6,-2,-23,-1,30,3,5,-8,16,6,0,-21,29,12,-14,29,-19
29,26,-1,-6,8,-3,-25,-2,31,0,2,-10,14,2,-4,-28,32,12,-15,180,-20
35,30,0,-3,12,-2,-23,0,30,-3,0,-12,12,-1,-8,-32,35,10,-13,399,-21
40,33,3,0,17,0,-18,3,27,-7,-3,-13,9,-6,-12,-34,38,6,-10,672,-24
40,32,4,0,21,1,-15,6,23,-11,-8,-14,7,-11,-17,-36,38,2,-8,961,-27
33,21,-1,-5,22,-4,-19,3,18,-13,-16,-20,1,-18,-25,-40,31,0,-8,1213,-31
16,1,-16,-20,18,-19,-33,-6,12,-15,-27,-29,-7,-26,-35,-47,15,0,-12,1367,-32
-5,-25,-37,-39,9,-40,-53,-23,3,-19,-39,-41,-18,-36,-45,-56,-7,-1,-18,1380,-30
-26,-50,-58,-57,-1,-60,-72,-42,-4,-23,-49,-52,-29,-43,-53,-63,-30,-3,-23,1238,-24
-43,-66,-73,-68,-11,-73,-84,-56,-11,-27,-55,-59,-36,-46,-56,-66,-49,-4,-26,960,-14
-50,-69,-78,-68,-18,-75,-84,-60,-14,-27,-53,-59,-35,-42,-51,-61,-59,-4,-24,594,-2
-46,-59,-70,-56,-20,-63,-70,-53,-11,-21,-44,-49,-25,-32,-38,-50,-57,-1,-19,204,8
-31,-36,-50,-32,-17,-38,-42,-34,-1,-9,-27,-31,-8,-15,-18,-31,-43,5,-11,-149,16
-6,-4,-19,0,-9,-3,-5,-7,14,8,-5,-5,15,5,7,-6,-20,17,0,-424,21
22,30,14,36,2,34,34,24,34,30,20,24,42,29,35,21,9,33,11,-605,23
49,61,45,68,15,67,69,53,56,54,45,52,69,53,62,48,39,51,20,-700,22
68,81,66,89,26,89,91,75,76,75,65,73,90,73,83,69,62,67,25,-730,20
76,88,76,98,34,98,99,88,91,92,78,86,105,88,96,82,77,80,28,-717,17
76,86,76,97,38,96,96,91,98,103,83,89,112,96,102,89,82,88,28,-683,13
72,79,72,90,41,89,86,88,100,110,82,86,112,98,103,89,81,91,28,-639,9
66,70,66,80,43,80,74,83,98,112,77,79,108,95,100,85,77,92,31,-593,6
61,63,61,70,46,72,63,77,94,113,69,70,103,89,94,79,73,92,36,-546,2
59,60,58,61,49,67,55,71,92,112,63,62,98,82,87,72,72,92,42,-500,0
56,56,55,52,51,62,46,66,92,112,58,56,95,75,81,65,72,93,47,-457,0
49,48,48,38,51,52,32,59,93,112,54,48,92,67,72,56,70,95,47,-420,0
38,35,36,21,48,37,14,47,94,109,48,38,86,58,61,43,63,96,42,-390,0
27,23,23,5,44,21,-2,34,92,103,43,28,79,49,50,30,54,95,35,-366,1
19,15,11,-5,41,9,-14,22,88,95,38,19,71,42,40,18,45,91,30,-344,2
15,12,2,-10,39,1,-19,14,82,86,35,13,65,38,34,10,38,86,29,-321,4
16,16,-1,-7,40,0,-16,10,77,78,35,11,62,38,32,7,37,80,32,-294,7
21,24,0,0,43,4,-8,11,72,71,37,12,62,42,35,9,39,74,38,-263,10
24,31,0,8,45,8,0,12,67,66,38,14,61,47,40,11,42,67,43,-230,13
21,31,-2,11,44,7,0,10,62,61,36,15,58,49,42,12,41,59,45,-197,14
13,24,-7,7,41,2,-4,5,56,55,30,13,51,49,41,10,35,51,43,-167,14
2,14,-15,0,37,-3,-12,0,49,48,21,8,40,45,36,5,28,42,40,-141,12
-6,5,-20,-6,32,-9,-19,-6,42,41,12,2,28,40,31,0,22,34,37,-118,9
-11,0,-22,-10,28,-11,-21,-9,36,31,6,-2,18,36,27,-3,18,28,36,-97,5
-13,0,-20,-10,25,-9,-19,-9,33,22,3,-5,12,33,24,-5,18,24,37,-78,2
-12,1,-17,-8,22,-6,-14,-9,31,12,4,-6,9,30,22,-6,19,21,39,-60,0
-10,3,-14,-5,20,-3,-9,-7,30,3,5,-9,8,26,20,-7,21,18,41,-41,-3
-11,0,-14,-6,16,-3,-9,-8,28,-3,4,-13,7,20,13,-11,21,14,40,-21,-7
-16,-7,-19,-12,10,-8,-16,-13,24,-9,1,-19,2,10,3,-20,16,10,36,-2,-10
-24,-18,-26,-20,2,-16,-27,-20,18,-15,-5,-28,-5,0,-9,-31,8,4,29,15,-13
-31,-28,-32,-28,-4,-24,-36,-26,11,-21,-12,-36,-14,-11,-21,-42,0,-3,22,35,-15
-33,-31,-33,-31,-9,-26,-40,-29,6,-27,-16,-41,-21,-18,-29,-50,-3,-10,18,57,-16
-30,-27,-28,-29,-11,-23,-38,-26,2,-31,-17,-43,-24,-22,-32,-52,-2,-16,16,82,-16
-25,-21,-21,-24,-11,-18,-32,-19,0,-33,-15,-41,-22,-23,-32,-50,2,-19,15,107,-15
-20,-15,-15,-20,-11,-13,-26,-14,-1,-32,-13,-38,-19,-23,-31,-47,7,-21,14,131,-16
-16,-12,-11,-17,-10,-10,-22,-10,-4,-32,-12,-36,-18,-24,-32,-45,8,-23,14,152,-18
-14,-12,-9,-15,-9,-7,-19,-10,-9,-34,-12,-36,-20,-26,-33,-45,6,-26,15,169,-19
-13,-13,-9,-14,-9,-6,-18,-12,-15,-36,-14,-36,-24,-28,-34,-45,1,-28,16,182,-20
-13,-14,-9,-12,-9,-5,-17,-14,-20,-39,-14,-36,-28,-28,-34,-45,-3,-31,18,193,-20
-11,-14,-10,-10,-8,-3,-16,-16,-22,-40,-13,-35,-30,-26,-31,-45,-6,-33,19,201,-19
-10,-14,-12,-8,-8,-3,-16,-17,-22,-39,-10,-32,-29,-23,-26,-43,-7,-33,20,207,-18
-12,-16,-18,-9,-9,-7,-20,-19,-22,-37,-7,-31,-28,-22,-22,-42,-8,-34,16,211,-17
-19,-22,-27,-16,-13,-15,-28,-24,-23,-36,-6,-31,-28,-22,-21,-43,-14,-35,11,213,-16
-27,-27,-35,-23,-17,-23,-34,-30,-27,-37,-8,-33,-31,-23,-20,-43,-24,-37,8,214,-15
-32,-28,-39,-26,-20,-25,-34,-32,-32,-40,-10,-34,-34,-22,-18,-41,-33,-42,10,216,-15
-35,-25,-37,-24,-21,-23,-28,-31,-37,-43,-10,-33,-34,-19,-14,-36,-39,-45,15,221,-16
-36,-22,-33,-20,-22,-18,-19,-26,-39,-43,-10,-30,-31,-13,-8,-30,-42,-48,21,226,-17
-37,-21,-28,-15,-23,-12,-11,-20,-39,-41,-9,-27,-27,-7,-3,-24,-42,-48,25,230,-19
-40,-24,-25,-14,-25,-9,-7,-14,-37,-36,-8,-24,-22,-2,0,-20,-41,-46,25,230,-20
-46,-30,-24,-16,-28,-9,-8,-10,-34,-30,-8,-23,-19,0,1,-19,-42,-44,20,226,-19
-53,-37,-25,-21,-31,-10,-11,-8,-30,-23,-10,-23,-18,1,2,-19,-45,-41,15,219,-17
-55,-39,-23,-23,-32,-7,-11,-5,-26,-17,-10,-22,-18,4,5,-18,-46,-38,13,211,-14
-50,-31,-17,-19,-28,2,-3,1,-21,-11,-8,-18,-16,12,10,-13,-42,-34,16,203,-9
-39,-18,-7,-9,-22,15,9,12,-15,-3,-3,-12,-11,21,19,-6,-33,-28,23,194,-6
-28,-6,0,0,-15,28,21,23,-7,5,2,-6,-3,30,27,-1,-22,-21,30,179,-4
-21,-1,3,3,-9,34,27,30,0,15,4,-2,4,34,30,0,-13,-12,34,154,-4
-18,-2,2,1,-4,35,26,32,6,23,4,-3,10,34,29,-2,-7,-4,34,119,-5
-19,-8,-2,-3,-2,31,20,31,11,29,0,-5,13,30,24,-8,-5,1,32,76,-6
-19,-13,-6,-9,0,26,11,27,15,32,-3,-8,13,26,19,-14,-4,5,29,29,-6
-18,-15,-9,-13,2,23,5,24,17,32,-6,-9,13,24,16,-17,-2,8,25,-16,-5
-14,-12,-8,-13,5,23,3,21,19,29,-7,-7,14,24,17,-18,0,9,22,-56,-1
-9,-7,-6,-9,9,24,4,19,20,24,-6,-4,15,25,19,-15,5,9,20,-88,2
-5,-1,-3,-4,12,26,6,18,21,19,-4,-1,17,25,22,-12,11,9,18,-112,5
-4,1,-2,0,15,25,6,15,21,14,-5,-1,18,23,22,-11,14,9,16,-130,7
-6,-1,-4,0,16,20,4,11,19,9,-7,-3,17,18,19,-13,14,8,13,-143,6
-12,-7,-9,-2,15,14,0,5,16,4,-10,-7,13,12,14,-16,10,5,9,-151,4
-17,-11,-12,-3,14,10,-1,1,12,-1,-12,-10,8,8,11,-18,6,1,8,-154,0
-20,-12,-13,-2,15,10,0,0,10,-7,-12,-9,4,6,10,-18,3,-3,9,-152,-2
-20,-8,-10,1,16,15,6,4,9,-11,-10,-6,3,7,12,-14,5,-7,12,-146,-4
-19,-3,-6,6,16,22,15,10,10,-13,-6,-1,5,10,15,-10,9,-10,17,-138,-6
-17,1,-2,10,17,28,22,15,10,-13,-4,2,7,12,18,-8,13,-13,23,-131,-7
-16,5,-1,12,15,31,26,18,9,-13,-5,4,7,13,18,-8,15,-15,27,-126,-7
-17,5,-2,13,13,33,27,18,6,-11,-9,2,5,12,17,-11,12,-18,30,-123,-8
-17,5,-3,13,10,33,26,17,0,-9,-14,0,0,10,14,-15,8,-21,32,-121,-9
-18,5,-4,15,7,35,24,16,-4,-5,-19,-3,-5,9,12,-19,3,-25,32,-119,-10
-18,5,-4,16,5,36,22,17,-9,0,-22,-5,-8,8,10,-23,0,-29,31,-117,-10
-21,5,-3,16,3,35,19,18,-12,8,-22,-7,-10,6,8,-25,-1,-34,27,-115,-11
-27,2,-4,14,0,30,14,17,-14,16,-22,-8,-11,3,5,-28,-3,-39,20,-110,-12
-33,-2,-6,10,-3,22,8,13,-16,22,-21,-10,-12,0,1,-30,-7,-45,11,-103,-13
-39,-7,-8,6,-7,14,1,5,-17,26,-21,-12,-15,-6,-4,-33,-13,-51,1,-94,-14
-41,-10,-9,2,-10,7,-3,-3,-19,25,-21,-13,-21,-11,-11,-33,-21,-56,-5,-84,-15
-40,-11,-10,1,-12,4,-5,-11,-21,23,-22,-13,-27,-16,-17,-32,-27,-60,-11,-72,-16
-36,-9,-9,2,-13,4,-5,-16,-21,20,-21,-12,-31,-20,-21,-29,-29,-61,-16,-61,-16
-31,-8,-9,1,-14,4,-6,-19,-20,20,-20,-11,-32,-23,-24,-27,-27,-59,-22,-53,-15
-28,-8,-11,0,-14,3,-9,-19,-18,22,-20,-12,-30,-26,-26,-26,-23,-56,-29,-48,-14
-27,-11,-15,-3,-16,0,-14,-18,-15,25,-21,-14,-26,-28,-27,-28,-18,-52,-36,-45,-13
