FP2-A2 ,F8 -A2 ,T4 -A2 ,T6 -A2 ,F4 -A2 ,C4 -A2 ,P4 -A2 ,O2 -A2 ,FP1-A1 ,F7 -A1 ,T3 -A1 ,T5 -A1 ,F3 -A1 ,C3 -A1 ,P3 -A1 ,O1 -A1 ,FZ -A2 ,CZ -A1 ,PZ -A2 ,BP1-REF,BP2-REF
,,,,,,,,,,,,,,,,,,,,
-761,-1153,-905,-518,-1118,-598,-300,-979,-37,120,-384,-287,-164,-359,-61,231,-675,-336,-332,-1083,-613
-516,-851,-673,-251,-1003,-340,12,-817,-50,77,-301,-209,-115,-294,55,358,-501,-367,-161,-935,-593
-300,-584,-422,0,-875,-106,279,-549,82,197,-156,-70,58,-194,188,505,-190,-281,-63,-763,-581
-399,-717,-474,-103,-902,-217,136,-528,170,330,-144,-65,142,-200,159,465,-142,-194,-195,-770,-597
-718,-1093,-784,-449,-1073,-548,-247,-796,121,311,-281,-179,31,-300,6,303,-434,-209,-398,-926,-623
-835,-1228,-940,-578,-1156,-663,-361,-984,-18,154,-399,-287,-131,-376,-84,220,-679,-326,-422,-993,-626
-612,-961,-751,-341,-1060,-435,-87,-873,-63,75,-342,-246,-128,-325,-2,318,-576,-385,-243,-867,-601
-314,-609,-452,-30,-890,-135,246,-590,35,157,-188,-104,16,-222,148,479,-250,-319,-88,-685,-589
-312,-620,-412,-29,-870,-145,213,-493,149,287,-127,-47,126,-196,169,493,-125,-227,-148,-660,-603
-624,-1005,-714,-379,-1032,-476,-165,-736,118,289,-260,-169,30,-304,17,329,-376,-236,-363,-816,-626
-812,-1225,-937,-587,-1152,-668,-381,-982,-39,142,-404,-318,-158,-407,-120,194,-679,-354,-427,-935,-625
-564,-918,-737,-313,-1045,-407,-79,-865,-84,44,-339,-264,-155,-346,-20,308,-577,-413,-217,-812,-586
-254,-546,-402,26,-871,-83,290,-544,58,161,-153,-86,53,-205,169,500,-201,-330,-62,-603,-568
-388,-723,-485,-108,-915,-224,117,-538,175,324,-150,-75,139,-218,139,444,-154,-217,-204,-596,-592
-734,-1156,-833,-481,-1100,-583,-284,-851,82,268,-325,-233,-28,-348,-53,250,-509,-259,-405,-762,-615
-781,-1202,-929,-535,-1162,-629,-323,-995,-54,96,-409,-320,-170,-399,-108,204,-701,-383,-369,-808,-608
-532,-885,-698,-265,-1041,-366,-5,-822,-49,54,-310,-230,-108,-313,26,342,-513,-408,-194,-666,-585
-315,-623,-450,-26,-908,-137,247,-567,71,160,-183,-108,40,-234,153,469,-214,-331,-91,-531,-587
-402,-756,-499,-125,-939,-236,108,-558,145,269,-186,-100,91,-241,124,438,-191,-251,-194,-569,-603
-712,-1127,-811,-457,-1109,-555,-255,-834,89,239,-316,-218,-28,-338,-20,284,-491,-273,-381,-744,-624
-827,-1256,-972,-585,-1194,-671,-369,-1022,-35,100,-423,-313,-171,-401,-95,216,-729,-377,-404,-835,-619
-611,-983,-783,-357,-1084,-441,-99,-904,-63,32,-358,-265,-160,-350,-1,312,-600,-425,-228,-731,-591
-341,-653,-489,-66,-929,-161,213,-624,55,129,-208,-121,6,-237,149,474,-272,-352,-84,-569,-574
-358,-695,-460,-89,-909,-186,164,-531,179,280,-152,-71,133,-203,176,478,-137,-242,-146,-557,-590
-648,-1058,-747,-418,-1066,-496,-200,-760,155,292,-273,-177,51,-300,33,322,-384,-227,-342,-721,-620
-814,-1256,-954,-609,-1174,-671,-383,-990,23,153,-401,-303,-116,-380,-82,216,-662,-323,-403,-843,-623
-648,-1039,-822,-426,-1096,-494,-170,-931,-30,60,-365,-276,-128,-341,-9,292,-615,-387,-238,-780,-604
-346,-672,-512,-92,-925,-180,194,-649,61,131,-210,-133,22,-228,145,463,-301,-327,-49,-626,-594
-285,-627,-418,-30,-880,-133,222,-514,187,280,-128,-52,158,-170,208,503,-126,-215,-75,-622,-600
-551,-958,-665,-315,-1010,-416,-107,-700,178,304,-228,-142,102,-249,76,361,-321,-190,-268,-795,-619
-773,-1207,-916,-556,-1142,-642,-355,-954,52,175,-362,-272,-65,-354,-65,233,-615,-277,-371,-974,-616
-668,-1065,-844,-448,-1102,-527,-210,-937,-22,70,-360,-275,-110,-341,-31,276,-617,-351,-260,-964,-595
-388,-721,-557,-140,-947,-233,133,-678,51,117,-222,-146,10,-235,119,445,-343,-310,-92,-837,-584
-298,-631,-430,-39,-885,-142,213,-507,172,253,-136,-56,147,-179,193,513,-139,-217,-96,-798,-595
-517,-905,-628,-275,-991,-383,-69,-654,193,310,-194,-108,119,-231,104,403,-288,-173,-266,-935,-617
-760,-1186,-899,-531,-1136,-626,-342,-930,76,193,-332,-234,-47,-327,-32,266,-606,-253,-378,-1111,-621
-695,-1100,-875,-464,-1120,-553,-246,-968,-22,57,-363,-264,-127,-334,-31,282,-671,-354,-275,-1111,-600
-413,-741,-588,-162,-967,-253,104,-723,27,79,-236,-158,-20,-240,118,434,-408,-329,-94,-957,-578
-281,-587,-410,-15,-868,-117,246,-506,163,231,-122,-51,144,-168,207,531,-147,-224,-67,-859,-576
-485,-852,-581,-240,-956,-333,-27,-606,211,331,-174,-88,145,-215,120,428,-243,-158,-243,-970,-602
-766,-1189,-877,-542,-1116,-627,-357,-886,114,254,-330,-229,-13,-322,-37,270,-562,-222,-400,-1139,-617
-760,-1177,-914,-544,-1134,-614,-322,-972,-4,113,-389,-292,-128,-348,-61,252,-689,-336,-338,-1159,-606
-466,-819,-642,-235,-988,-310,28,-759,20,96,-273,-193,-57,-254,83,404,-461,-337,-137,-1004,-588
-256,-566,-404,-5,-860,-93,267,-506,153,228,-130,-53,117,-151,222,541,-157,-241,-50,-872,-589
-371,-726,-487,-132,-899,-226,100,-531,236,337,-137,-52,170,-169,179,484,-153,-160,-179,-926,-611
-665,-1092,-798,-458,-1070,-536,-250,-805,153,281,-284,-189,29,-278,21,316,-456,-202,-363,-1101,-621
-742,-1177,-921,-545,-1133,-608,-319,-964,25,140,-384,-283,-107,-338,-44,248,-654,-306,-361,-1158,-614
-517,-895,-705,-297,-1017,-368,-34,-816,7,90,-305,-225,-74,-280,49,349,-496,-334,-187,-1035,-592
-286,-613,-445,-48,-880,-124,236,-557,126,198,-165,-98,81,-189,179,487,-197,-254,-68,-889,-582
-357,-724,-483,-131,-896,-212,113,-537,218,315,-151,-76,156,-188,166,466,-155,-166,-176,-909,-595
-649,-1069,-775,-440,-1054,-520,-234,-794,166,279,-283,-181,52,-279,25,317,-431,-192,-364,-1080,-619
-750,-1180,-915,-547,-1127,-621,-329,-969,40,132,-375,-271,-92,-335,-46,247,-647,-300,-387,-1171,-616
-547,-921,-732,-325,-1034,-400,-66,-849,0,57,-319,-226,-87,-288,41,345,-525,-360,-231,-1068,-584
-305,-624,-466,-58,-894,-149,220,-596,112,154,-187,-108,58,-196,173,489,-221,-294,-102,-921,-576
-334,-689,-457,-89,-885,-196,149,-535,214,281,-151,-68,149,-181,171,484,-137,-205,-185,-908,-587
-588,-998,-711,-366,-1020,-470,-167,-759,176,269,-253,-157,66,-269,37,351,-362,-215,-362,-1057,-606
-716,-1157,-886,-517,-1113,-615,-316,-953,50,134,-360,-271,-78,-349,-67,255,-598,-312,-410,-1144,-604
-546,-933,-741,-333,-1028,-433,-100,-872,0,50,-328,-250,-101,-317,-6,323,-522,-376,-257,-1059,-584
-286,-622,-463,-52,-877,-164,195,-607,106,128,-190,-118,41,-217,129,461,-230,-317,-117,-905,-575
-326,-688,-448,-91,-869,-210,117,-527,222,269,-150,-72,145,-198,136,451,-116,-216,-212,-902,-599
-632,-1067,-755,-429,-1037,-532,-254,-778,180,269,-278,-191,51,-304,-18,286,-376,-214,-421,-1062,-629
-785,-1236,-954,-591,-1137,-679,-402,-993,29,119,-402,-312,-125,-390,-122,189,-648,-325,-464,-1156,-630
-587,-984,-782,-374,-1041,-453,-140,-902,-17,32,-358,-266,-134,-347,-40,284,-561,-390,-288,-1061,-598
-294,-629,-476,-52,-881,-152,208,-617,75,103,-212,-126,9,-238,117,445,-253,-339,-122,-897,-583
-265,-615,-407,-23,-849,-129,214,-499,184,238,-150,-69,121,-201,152,474,-104,-250,-160,-861,-590
-549,-961,-677,-326,-998,-425,-129,-710,175,262,-249,-160,58,-276,35,334,-334,-233,-358,-1015,-610
-757,-1208,-911,-552,-1127,-628,-351,-959,48,131,-384,-287,-111,-372,-92,209,-619,-321,-456,-1133,-610
-640,-1044,-822,-415,-1073,-503,-177,-924,-15,37,-367,-277,-135,-352,-43,257,-593,-393,-330,-1069,-591
-360,-702,-536,-110,-921,-215,164,-666,61,89,-237,-148,-3,-250,98,415,-307,-357,-162,-892,-581
-285,-635,-431,-28,-855,-144,220,-508,184,230,-143,-63,123,-194,155,468,-113,-258,-166,-813,-589
-533,-950,-654,-296,-985,-405,-89,-688,179,258,-230,-134,74,-268,42,344,-292,-225,-345,-912,-616
-751,-1203,-901,-530,-1115,-630,-347,-946,54,135,-365,-261,-94,-356,-89,218,-592,-310,-441,-1033,-626
-652,-1072,-841,-438,-1086,-530,-213,-947,-31,22,-377,-278,-145,-345,-55,255,-618,-395,-322,-983,-614
-362,-709,-546,-123,-922,-227,137,-678,40,66,-243,-156,-25,-234,97,414,-333,-354,-130,-813,-596
-254,-604,-400,-15,-843,-114,236,-486,181,228,-129,-55,139,-171,182,496,-94,-233,-117,-717,-601
-480,-883,-594,-261,-944,-356,-60,-614,215,310,-199,-109,130,-227,85,378,-215,-175,-292,-833,-625
-749,-1205,-896,-563,-1101,-642,-374,-902,108,218,-345,-253,-28,-326,-69,229,-541,-236,-430,-999,-637
-708,-1145,-902,-527,-1098,-594,-307,-959,-1,85,-392,-295,-117,-348,-75,222,-628,-335,-339,-993,-627
-415,-778,-614,-205,-948,-281,61,-725,44,95,-254,-186,-20,-244,74,381,-375,-322,-137,-842,-602
-223,-553,-386,13,-825,-84,268,-476,186,238,-117,-51,163,-150,199,501,-81,-222,-65,-740,-593
-382,-759,-512,-155,-892,-254,51,-535,252,342,-137,-62,199,-178,145,431,-122,-139,-212,-854,-614
-694,-1133,-831,-501,-1064,-575,-317,-831,157,267,-302,-222,39,-299,-35,244,-457,-188,-392,-1070,-631
-725,-1160,-902,-534,-1089,-597,-329,-963,30,124,-376,-296,-91,-348,-86,204,-631,-295,-346,-1155,-617
-429,-792,-618,-208,-942,-292,36,-747,61,111,-247,-181,-4,-248,71,361,-393,-296,-143,-1036,-586
-237,-566,-401,5,-822,-99,249,-491,205,261,-103,-47,186,-147,199,485,-82,-192,-74,-933,-578
-438,-825,-565,-209,-905,-308,-9,-583,243,353,-159,-93,187,-207,104,385,-167,-126,-235,-1060,-607
-717,-1164,-860,-518,-1062,-596,-334,-880,136,252,-318,-237,17,-320,-54,227,-519,-193,-380,-1252,-614
-692,-1114,-875,-497,-1064,-557,-277,-944,21,106,-370,-287,-79,-347,-70,217,-621,-305,-302,-1285,-601
-426,-787,-613,-212,-924,-286,47,-732,46,104,-254,-188,0,-257,71,361,-384,-304,-125,-1143,-576
-258,-587,-413,-21,-820,-112,239,-500,173,233,-125,-66,157,-171,181,482,-108,-207,-52,-1035,-580
-405,-786,-527,-185,-880,-275,33,-567,234,328,-153,-76,182,-196,130,414,-157,-136,-188,-1115,-601
-687,-1123,-819,-492,-1034,-563,-297,-847,143,250,-297,-206,32,-299,-21,262,-473,-187,-342,-1287,-617
-717,-1162,-903,-536,-1081,-594,-319,-974,19,95,-371,-282,-92,-347,-68,221,-645,-302,-311,-1314,-603
-465,-844,-667,-261,-954,-327,-4,-802,25,61,-271,-194,-32,-265,55,357,-447,-320,-121,-1125,-577
-245,-572,-420,-15,-830,-102,246,-532,159,179,-125,-62,138,-168,190,491,-134,-235,-28,-835,-572
-349,-720,-478,-133,-855,-227,91,-522,254,302,-127,-66,203,-177,153,441,-102,-152,-160,-624,-600
-662,-1097,-792,-475,-1026,-552,-288,-796,194,260,-275,-200,68,-292,-16,267,-401,-187,-352,-448,-641
-762,-1203,-941,-584,-1097,-652,-377,-973,47,104,-388,-306,-91,-369,-94,191,-627,-307,-354,-104,-650
-529,-915,-734,-331,-991,-400,-79,-850,-2,25,-330,-259,-94,-324,-10,294,-507,-371,-156,394,-639
-251,-579,-437,-28,-840,-104,249,-565,98,123,-181,-113,59,-212,145,460,-187,-310,10,847,-636
-278,-630,-416,-46,-831,-138,193,-491,202,256,-136,-61,157,-183,158,464,-83,-221,-52,917,-647
-576,-994,-707,-365,-988,-445,-157,-732,168,252,-260,-167,68,-284,20,318,-338,-224,-237,562,-661
-756,-1203,-916,-555,-1113,-623,-343,-962,42,130,-388,-288,-86,-366,-93,216,-614,-322,-302,47,-643
-607,-998,-776,-371,-1047,-444,-120,-884,3,62,-356,-262,-88,-329,-19,299,-558,-377,-163,-361,-603
-335,-660,-486,-70,-899,-161,211,-613,101,148,-214,-129,55,-221,130,456,-258,-316,-7,-687,-574
-320,-658,-429,-44,-872,-149,205,-504,220,296,-143,-65,168,-186,168,494,-115,-210,-57,-1049,-576
-591,-987,-687,-334,-1019,-430,-125,-727,203,316,-249,-159,98,-277,38,345,-340,-194,-251,-1466,-592
-771,-1193,-899,-528,-1141,-618,-318,-961,77,189,-373,-273,-68,-356,-77,235,-620,-297,-326,-1738,-593
-636,-1014,-798,-386,-1085,-471,-142,-922,15,95,-355,-260,-100,-323,-25,297,-599,-372,-202,-1739,-573
-356,-672,-509,-77,-930,-183,190,-654,97,158,-217,-139,30,-224,118,449,-305,-328,-39,-1581,-553
-304,-628,-417,-25,-877,-135,225,-516,217,309,-139,-65,166,-192,176,496,-115,-218,-75,-1518,-557
-565,-958,-654,-305,-1002,-415,-110,-695,227,366,-223,-141,127,-259,65,358,-294,-179,-269,-1637,-586
-807,-1234,-920,-570,-1147,-664,-388,-962,93,247,-387,-284,-60,-363,-88,212,-616,-270,-390,-1760,-595
-710,-1110,-867,-478,-1113,-561,-259,-976,-6,119,-393,-304,-137,-360,-65,239,-658,-360,-282,-1702,-576
-394,-722,-550,-137,-943,-232,127,-701,51,143,-262,-180,-20,-256,90,408,-358,-337,-85,-1496,-559
-283,-606,-398,-10,-857,-123,236,-509,189,299,-153,-77,146,-188,181,493,-123,-219,-77,-1390,-570
-508,-894,-600,-253,-969,-362,-52,-648,211,370,-217,-134,128,-236,86,377,-254,-165,-254,-1485,-607
-755,-1178,-871,-517,-1115,-611,-334,-913,105,265,-352,-261,-24,-330,-49,238,-564,-231,-386,-1620,-613
-698,-1099,-852,-460,-1107,-551,-245,-951,1,136,-382,-300,-113,-349,-50,244,-625,-324,-303,-1580,-595
-412,-742,-570,-151,-946,-247,107,-713,47,151,-264,-189,-17,-254,89,394,-370,-308,-115,-1391,-571
-266,-582,-386,12,-849,-91,272,-497,174,290,-147,-75,131,-170,183,499,-122,-214,-66,-1255,-571
-458,-820,-547,-201,-942,-294,20,-595,225,374,-186,-111,150,-207,114,412,-221,-148,-233,-1313,-596
-724,-1136,-827,-488,-1093,-569,-292,-863,120,280,-331,-247,-5,-323,-51,256,-517,-221,-384,-1438,-608
-714,-1114,-871,-485,-1112,-551,-260,-940,5,135,-396,-306,-119,-367,-75,227,-627,-331,-336,-1427,-600
-446,-782,-612,-206,-974,-276,60,-732,27,119,-294,-218,-45,-285,52,362,-398,-335,-159,-1259,-581
-263,-574,-400,-8,-860,-92,255,-500,162,255,-169,-98,115,-190,169,480,-125,-239,-93,-1112,-580
-399,-763,-505,-159,-914,-245,63,-551,233,354,-184,-102,151,-218,119,416,-156,-159,-229,-1156,-602
-685,-1106,-806,-470,-1073,-539,-274,-836,141,276,-325,-232,-1,-323,-48,248,-474,-216,-398,-1301,-611
-726,-1150,-893,-519,-1116,-581,-306,-970,11,123,-408,-317,-145,-382,-102,197,-654,-325,-370,-1334,-603
-477,-839,-660,-249,-994,-323,-1,-801,16,80,-321,-238,-97,-309,20,321,-474,-358,-199,-1169,-581
-252,-565,-400,9,-852,-86,265,-522,154,206,-170,-97,79,-202,163,471,-147,-265,-105,-993,-574
-358,-714,-470,-111,-889,-205,111,-517,250,334,-156,-88,155,-208,135,431,-112,-176,-235,-1001,-598
-675,-1092,-784,-447,-1058,-531,-258,-792,193,312,-296,-206,43,-310,-19,272,-399,-185,-432,-1153,-625
-784,-1210,-931,-565,-1142,-636,-359,-980,54,169,-400,-301,-109,-377,-94,195,-641,-298,-441,-1213,-618
-559,-926,-729,-316,-1036,-397,-65,-856,18,98,-339,-250,-103,-321,4,312,-531,-354,-255,-1084,-587
-273,-586,-427,-11,-880,-94,275,-570,125,183,-190,-112,46,-212,159,473,-210,-293,-99,-902,-577
-290,-622,-401,-22,-871,-113,226,-485,230,312,-138,-60,151,-189,178,492,-95,-199,-156,-874,-589
-585,-989,-689,-342,-1027,-425,-136,-726,186,303,-258,-171,53,-280,44,338,-350,-207,-360,-1011,-617
-767,-1197,-905,-541,-1143,-610,-336,-952,52,175,-381,-286,-105,-361,-64,234,-632,-309,-429,-1100,-619
-623,-1009,-784,-378,-1073,-452,-137,-889,-8,84,-359,-275,-130,-338,-14,291,-581,-379,-291,-996,-594
-349,-675,-493,-84,-921,-165,195,-613,89,165,-207,-135,16,-227,138,458,-285,-320,-128,-804,-584
-321,-653,-427,-45,-884,-139,207,-496,197,303,-140,-55,128,-188,188,495,-135,-224,-165,-737,-594
-585,-975,-682,-326,-1018,-410,-115,-702,177,319,-235,-135,65,-270,66,356,-342,-212,-348,-854,-614
-775,-1200,-910,-530,-1149,-609,-325,-949,52,190,-364,-253,-99,-350,-49,241,-634,-302,-427,-972,-611
-645,-1042,-828,-402,-1098,-468,-158,-922,-21,86,-354,-253,-138,-328,2,295,-630,-382,-293,-906,-595
-359,-688,-534,-88,-938,-169,193,-657,51,131,-220,-132,-13,-227,148,453,-339,-344,-113,-730,-582
-289,-617,-413,-9,-874,-92,250,-489,177,278,-139,-51,129,-179,200,506,-130,-238,-124,-656,-593
-543,-937,-638,-285,-997,-363,-70,-654,189,340,-221,-123,104,-246,92,378,-295,-191,-312,-770,-618
-797,-1242,-919,-563,-1155,-624,-361,-930,75,226,-373,-259,-65,-348,-55,229,-615,-271,-436,-912,-620
-724,-1150,-893,-495,-1142,-549,-261,-966,-24,93,-398,-289,-146,-352,-38,250,-670,-362,-339,-872,-603
-418,-761,-589,-163,-977,-228,120,-706,29,104,-256,-170,-34,-246,117,413,-393,-350,-139,-693,-581
-259,-580,-397,16,-867,-64,294,-476,168,246,-123,-45,141,-153,230,527,-123,-246,-95,-573,-583
-449,-823,-558,-194,-959,-270,42,-572,216,327,-165,-74,155,-193,155,437,-206,-179,-262,-650,-609
-736,-1170,-864,-503,-1127,-566,-286,-865,114,239,-317,-215,-5,-305,-5,279,-530,-239,-421,-812,-622
-745,-1168,-922,-522,-1157,-572,-279,-970,-19,89,-398,-294,-134,-358,-51,240,-671,-355,-374,-831,-613
-487,-836,-668,-227,-1011,-295,56,-768,8,83,-289,-198,-61,-270,70,378,-457,-362,-188,-690,-594
-297,-615,-443,-15,-887,-97,268,-524,135,213,-167,-77,98,-186,189,498,-179,-270,-111,-570,-591
-438,-798,-545,-161,-950,-247,78,-570,199,315,-191,-96,132,-212,132,432,-210,-199,-246,-630,-609
-716,-1136,-837,-463,-1104,-534,-246,-837,116,254,-329,-220,-2,-313,-15,287,-503,-244,-413,-800,-622
-764,-1187,-932,-514,-1155,-584,-279,-969,3,117,-409,-301,-126,-361,-61,245,-669,-353,-395,-852,-611
-527,-896,-714,-261,-1035,-335,22,-802,-11,75,-331,-233,-82,-298,49,363,-495,-379,-222,-726,-585
-308,-629,-461,-15,-906,-102,275,-541,118,201,-186,-94,84,-200,182,502,-200,-286,-109,-608,-579
-401,-757,-513,-116,-927,-204,134,-538,194,320,-173,-87,143,-203,149,465,-177,-203,-215,-674,-592
-695,-1126,-815,-441,-1093,-525,-228,-809,125,285,-308,-209,17,-302,-2,302,-472,-226,-400,-893,-612
-802,-1247,-968,-564,-1174,-635,-341,-989,-9,135,-416,-311,-140,-376,-82,216,-702,-338,-428,-1018,-609
-578,-974,-773,-323,-1070,-406,-70,-858,-33,67,-355,-255,-119,-320,9,314,-567,-392,-251,-940,-586
-314,-646,-478,-34,-916,-128,248,-581,90,167,-200,-110,47,-197,167,478,-241,-316,-111,-817,-581
-355,-709,-468,-74,-910,-178,178,-510,209,312,-145,-60,162,-175,186,482,-128,-209,-202,-851,-596
-657,-1078,-756,-404,-1070,-493,-187,-740,174,310,-270,-161,70,-268,41,333,-378,-208,-404,-1049,-626
-818,-1263,-962,-587,-1174,-661,-362,-970,37,168,-393,-280,-96,-346,-63,223,-655,-311,-460,-1194,-629
-641,-1037,-814,-395,-1090,-466,-134,-903,-22,69,-362,-252,-122,-312,4,300,-600,-386,-301,-1129,-601
-330,-668,-496,-62,-919,-149,230,-622,68,128,-209,-107,21,-206,160,474,-280,-332,-121,-971,-583
-279,-629,-409,-7,-874,-99,262,-485,185,262,-142,-36,142,-169,207,512,-104,-238,-146,-944,-587
-557,-966,-658,-302,-1017,-384,-79,-677,175,289,-241,-128,84,-241,83,370,-312,-215,-348,-1103,-607
-782,-1220,-914,-534,-1150,-612,-319,-930,44,169,-376,-258,-81,-347,-50,238,-608,-308,-456,-1238,-604
-673,-1077,-845,-418,-1104,-496,-169,-914,-28,72,-374,-269,-137,-336,-22,277,-607,-383,-339,-1198,-586
-386,-729,-548,-105,-943,-199,173,-652,35,119,-246,-151,-20,-251,109,431,-321,-352,-166,-1024,-571
-290,-630,-413,1,-880,-99,261,-488,154,256,-157,-57,107,-194,180,500,-126,-259,-165,-950,-582
-519,-910,-613,-241,-992,-339,-18,-638,169,300,-223,-118,82,-249,91,391,-273,-225,-340,-1057,-608
-786,-1217,-901,-528,-1146,-610,-316,-906,67,211,-361,-252,-69,-357,-54,251,-580,-293,-487,-1207,-618
-709,-1123,-860,-456,-1118,-531,-212,-931,-30,97,-396,-295,-150,-375,-55,251,-615,-380,-389,-1177,-604
-374,-713,-533,-95,-939,-180,186,-654,38,129,-242,-149,-25,-258,113,432,-312,-346,-182,-994,-586
-273,-613,-406,15,-865,-92,269,-480,180,274,-132,-40,136,-182,202,509,-87,-236,-177,-909,-592
-560,-978,-674,-305,-1014,-407,-97,-686,185,322,-231,-132,91,-251,72,360,-289,-204,-401,-1047,-625
-795,-1254,-941,-556,-1150,-658,-363,-959,59,194,-384,-274,-87,-356,-67,217,-622,-301,-508,-1192,-632
-666,-1098,-856,-431,-1105,-518,-199,-945,-22,69,-382,-276,-152,-340,-37,263,-623,-386,-385,-1141,-613
-348,-715,-545,-94,-933,-195,175,-671,57,115,-234,-138,-18,-227,134,438,-314,-351,-201,-963,-595
-241,-599,-394,25,-855,-80,283,-479,187,263,-132,-36,137,-159,218,519,-76,-243,-191,-879,-600
-461,-878,-588,-220,-958,-321,-1,-608,220,333,-193,-94,126,-212,123,407,-200,-185,-366,-993,-626
-715,-1187,-875,-505,-1111,-591,-305,-890,117,232,-334,-227,-34,-311,-26,265,-520,-259,-496,-1150,-640
-667,-1124,-878,-468,-1111,-553,-237,-951,11,94,-377,-269,-126,-336,-34,264,-609,-354,-411,-1152,-619
-372,-763,-593,-155,-952,-241,117,-719,56,108,-249,-171,-35,-242,108,410,-362,-340,-212,-1004,-593
-216,-587,-406,19,-853,-86,278,-506,182,248,-132,-60,119,-170,205,508,-105,-237,-164,-908,-589
-392,-823,-561,-186,-947,-285,25,-600,237,338,-167,-88,130,-203,138,425,-185,-173,-328,-999,-614
-669,-1144,-853,-489,-1108,-581,-295,-879,150,263,-304,-212,-6,-294,-2,273,-485,-224,-483,-1152,-623
-670,-1139,-895,-498,-1126,-583,-278,-960,42,135,-356,-265,-107,-317,-25,263,-600,-315,-428,-1161,-609
-408,-812,-650,-214,-990,-305,43,-756,63,128,-251,-174,-32,-233,98,397,-381,-319,-245,-998,-590
-217,-600,-431,-8,-872,-110,257,-514,193,254,-124,-52,126,-153,215,523,-98,-226,-169,-861,-595
-357,-777,-526,-155,-929,-257,71,-561,257,356,-141,-55,166,-180,164,463,-123,-149,-296,-916,-614
-648,-1131,-823,-468,-1097,-560,-272,-845,173,295,-285,-180,23,-289,10,307,-444,-196,-464,-1085,-629
-707,-1190,-929,-538,-1155,-619,-320,-988,37,148,-380,-271,-122,-339,-46,255,-642,-315,-449,-1141,-622
-452,-876,-690,-265,-1030,-354,-7,-819,29,105,-299,-198,-82,-270,64,381,-470,-350,-269,-1000,-592
-227,-595,-430,-11,-893,-114,257,-552,157,218,-146,-61,94,-171,201,523,-153,-262,-167,-828,-579
-323,-723,-475,-107,-914,-208,123,-523,256,353,-125,-43,178,-170,179,488,-93,-170,-282,-828,-596
-636,-1105,-780,-446,-1082,-533,-256,-790,196,329,-263,-161,63,-271,25,321,-379,-189,-487,-962,-627
-749,-1240,-940,-577,-1170,-652,-371,-980,60,183,-376,-263,-94,-343,-59,239,-633,-294,-502,-1013,-623
-539,-970,-760,-347,-1069,-419,-95,-873,16,103,-317,-211,-96,-292,23,337,-536,-362,-326,-879,-604
-258,-625,-460,-38,-911,-127,237,-593,121,189,-159,-62,57,-175,181,502,-220,-294,-169,-683,-599
-261,-646,-419,-35,-887,-135,205,-501,231,321,-103,-9,170,-138,212,518,-88,-199,-230,-649,-613
-552,-1000,-702,-350,-1048,-438,-148,-730,196,321,-222,-119,79,-242,66,358,-331,-198,-432,-800,-634
-738,-1218,-925,-555,-1165,-628,-348,-964,72,193,-342,-241,-73,-331,-54,243,-611,-296,-502,-928,-632
-605,-1042,-813,-404,-1103,-476,-163,-908,22,104,-319,-235,-95,-304,-3,299,-562,-363,-368,-867,-608
-326,-701,-516,-98,-939,-186,176,-632,112,166,-185,-104,45,-202,145,455,-256,-308,-198,-735,-592
-276,-656,-428,-48,-892,-142,204,-503,224,297,-113,-35,162,-159,195,490,-88,-210,-222,-719,-599
-515,-960,-661,-319,-1011,-404,-105,-685,214,320,-208,-114,103,-237,77,365,-281,-190,-394,-890,-620
-710,-1193,-895,-538,-1141,-612,-331,-944,82,184,-341,-237,-67,-338,-56,250,-577,-298,-477,-1060,-619
-590,-1033,-810,-412,-1092,-480,-175,-923,11,73,-338,-242,-118,-315,-9,294,-574,-376,-346,-1049,-603
-307,-679,-520,-102,-929,-188,177,-661,87,119,-203,-123,4,-213,131,454,-275,-342,-177,-919,-581
-221,-594,-403,-14,-862,-103,250,-489,218,269,-117,-39,150,-163,190,516,-63,-234,-183,-881,-584
-455,-893,-618,-280,-972,-366,-56,-644,235,338,-189,-107,122,-234,76,393,-210,-180,-372,-1052,-612
-714,-1203,-913,-565,-1121,-637,-364,-933,126,226,-342,-241,-43,-338,-72,253,-533,-262,-503,-1237,-619
-650,-1124,-897,-507,-1109,-578,-276,-972,31,88,-366,-266,-125,-347,-64,262,-592,-354,-417,-1242,-604
-337,-748,-592,-178,-944,-253,99,-722,85,99,-229,-145,-17,-248,99,429,-308,-340,-219,-1072,-583
-156,-555,-379,16,-831,-82,283,-486,226,242,-99,-19,158,-158,210,537,-21,-240,-158,-955,-585
-322,-774,-514,-167,-904,-263,49,-558,290,345,-128,-45,185,-186,152,455,-75,-168,-310,-1047,-613
-601,-1112,-820,-481,-1069,-560,-291,-841,201,269,-279,-184,35,-293,-12,288,-397,-219,-473,-1225,-629
-614,-1136,-890,-513,-1097,-574,-292,-945,77,123,-352,-262,-93,-338,-52,256,-539,-326,-419,-1258,-613
-349,-809,-638,-234,-951,-297,29,-746,94,99,-261,-179,-38,-259,69,381,-323,-336,-218,-1099,-594
-137,-574,-407,-12,-823,-86,254,-492,223,225,-130,-58,126,-161,198,502,-30,-238,-114,-894,-588
-255,-744,-499,-150,-871,-224,77,-522,298,333,-137,-64,180,-176,154,445,-34,-151,-229,-759,-617
-534,-1081,-793,-462,-1020,-510,-252,-784,223,271,-271,-192,47,-279,-1,286,-318,-189,-382,-622,-638
-590,-1143,-901,-534,-1075,-571,-310,-924,106,124,-351,-276,-76,-328,-47,231,-488,-300,-358,-275,-649
-358,-848,-686,-284,-957,-328,-24,-764,95,68,-281,-216,-46,-263,50,337,-320,-341,-177,240,-641
-125,-585,-430,-40,-824,-92,241,-503,204,178,-146,-90,108,-173,174,464,-16,-267,-50,745,-647
-201,-703,-463,-123,-837,-178,126,-481,290,297,-137,-75,174,-183,147,421,28,-180,-143,908,-679
-508,-1075,-762,-448,-1003,-496,-235,-751,233,267,-271,-196,57,-289,-12,255,-265,-202,-336,689,-702
-640,-1222,-936,-589,-1103,-624,-371,-956,107,131,-378,-298,-94,-355,-88,179,-512,-300,-374,319,-692
-448,-961,-751,-364,-1014,-406,-104,-848,84,70,-312,-240,-73,-291,6,297,-395,-338,-213,0,-648
-171,-623,-449,-52,-861,-112,232,-563,209,171,-150,-88,100,-171,170,468,-71,-256,-67,-336,-620
-192,-656,-424,-56,-849,-133,186,-476,341,324,-87,-33,222,-141,199,485,60,-148,-148,-776,-626
-489,-1026,-702,-367,-1003,-451,-164,-707,314,334,-208,-132,142,-239,49,334,-185,-144,-360,-1255,-651
-675,-1236,-919,-553,-1118,-632,-352,-946,176,187,-334,-262,-38,-331,-71,221,-477,-252,-429,-1568,-650
-529,-1034,-801,-381,-1060,-461,-140,-900,111,74,-314,-240,-71,-305,-13,297,-458,-329,-279,-1595,-631
-239,-673,-492,-52,-898,-146,222,-628,181,119,-177,-102,52,-202,139,464,-158,-297,-99,-1457,-617
-185,-621,-398,11,-854,-89,265,-488,295,250,-98,-27,170,-161,192,509,18,-203,-123,-1410,-630
-454,-949,-637,-266,-991,-367,-59,-679,294,290,-185,-106,124,-238,72,377,-174,-175,-314,-1530,-650
-694,-1219,-898,-516,-1135,-608,-316,-937,164,168,-321,-243,-36,-337,-66,246,-486,-268,-425,-1648,-661
-612,-1100,-842,-422,-1103,-510,-186,-936,87,58,-326,-252,-95,-332,-37,274,-503,-358,-309,-1594,-652
-337,-748,-548,-113,-947,-218,163,-681,153,104,-198,-137,23,-231,103,428,-222,-332,-135,-1408,-636
-249,-654,-422,-19,-881,-124,244,-514,275,243,-103,-42,164,-174,175,496,-16,-237,-132,-1303,-654
-472,-934,-618,-261,-986,-361,-40,-655,300,299,-166,-98,134,-228,78,379,-155,-190,-300,-1377,-685
-717,-1219,-888,-523,-1128,-616,-321,-920,179,193,-310,-233,-29,-323,-65,234,-469,-275,-418,-1499,-703
-660,-1151,-875,-476,-1121,-550,-243,-968,85,63,-340,-268,-114,-334,-67,239,-545,-374,-333,-1456,-695
-374,-800,-591,-168,-964,-253,102,-726,138,80,-215,-157,-10,-236,85,389,-284,-357,-153,-1259,-677
-238,-648,-410,-12,-864,-118,254,-510,280,233,-87,-39,166,-150,191,493,-16,-242,-124,-1128,-681
-435,-905,-569,-222,-950,-326,-2,-600,338,335,-126,-71,184,-188,117,400,-93,-168,-292,-1212,-704
-722,-1247,-874,-537,-1108,-610,-338,-882,231,255,-282,-220,28,-295,-37,239,-424,-222,-452,-1368,-721
-721,-1232,-919,-538,-1128,-597,-312,-968,106,104,-347,-281,-92,-329,-68,214,-561,-332,-392,-1365,-701
-441,-873,-646,-231,-970,-295,53,-757,117,82,-234,-178,-28,-236,77,364,-339,-345,-193,-1190,-673
-225,-610,-390,22,-839,-68,307,-496,253,220,-81,-28,155,-129,223,516,-37,-246,-94,-1014,-665
-344,-763,-470,-102,-885,-188,153,-501,334,337,-79,-28,219,-140,183,463,-32,-157,-221,-1032,-686
-648,-1128,-780,-429,-1052,-502,-204,-787,247,275,-230,-167,80,-253,20,295,-340,-194,-415,-1167,-703
-735,-1219,-905,-516,-1104,-576,-283,-941,113,126,-340,-263,-69,-322,-52,220,-537,-309,-421,-1217,-704
-526,-942,-707,-282,-996,-344,-6,-803,86,63,-282,-210,-61,-275,32,318,-402,-355,-260,-1088,-687
-288,-648,-433,-12,-855,-90,280,-526,195,172,-146,-83,94,-173,168,462,-102,-279,-141,-930,-675
-350,-742,-454,-78,-871,-162,182,-491,281,300,-126,-58,166,-165,157,448,-51,-189,-239,-940,-688
-640,-1093,-739,-390,-1029,-464,-173,-745,224,272,-262,-167,63,-262,21,297,-329,-207,-438,-1093,-705
-756,-1212,-895,-520,-1113,-574,-298,-932,80,113,-368,-275,-91,-333,-64,213,-557,-320,-469,-1158,-693
-558,-950,-721,-301,-1019,-362,-50,-821,37,31,-319,-237,-81,-285,17,304,-452,-377,-319,-1044,-666
-300,-636,-441,-22,-869,-90,256,-552,130,122,-183,-112,66,-195,147,443,-145,-309,-186,-862,-656
-325,-688,-421,-46,-861,-134,201,-487,235,264,-140,-73,162,-186,154,448,-46,-209,-265,-824,-674
-620,-1054,-710,-377,-1018,-451,-163,-726,189,260,-266,-186,69,-288,2,289,-299,-211,-479,-950,-701
-797,-1260,-936,-576,-1135,-636,-363,-966,50,120,-395,-302,-102,-377,-124,180,-589,-311,-556,-1046,-695
-643,-1052,-813,-402,-1070,-469,-148,-908,-15,25,-366,-283,-128,-344,-60,253,-543,-380,-424,-948,-669
-343,-685,-501,-74,-907,-161,214,-626,65,94,-212,-138,14,-236,101,430,-237,-323,-267,-760,-639
-297,-631,-406,-12,-864,-104,253,-481,187,240,-132,-56,151,-184,161,479,-49,-221,-306,-691,-639
-566,-960,-654,-308,-996,-398,-88,-666,180,282,-228,-139,106,-257,36,340,-240,-192,-515,-816,-657
-796,-1229,-912,-551,-1135,-637,-340,-935,37,155,-387,-286,-82,-364,-111,196,-570,-290,-616,-955,-660
-667,-1059,-830,-421,-1095,-496,-171,-933,-59,29,-384,-289,-148,-350,-63,240,-603,-379,-476,-887,-630
-372,-683,-518,-93,-936,-181,191,-640,34,92,-222,-152,6,-232,110,409,-276,-329,-295,-687,-604
-355,-669,-447,-70,-895,-162,183,-502,165,264,-155,-92,147,-200,153,443,-94,-215,-344,-614,-618
-622,-1012,-699,-360,-1030,-442,-156,-712,127,277,-274,-189,57,-299,14,296,-332,-210,-517,-750,-640
-775,-1190,-897,-527,-1141,-604,-322,-943,-8,132,-396,-303,-114,-381,-93,199,-626,-310,-555,-857,-634
-638,-1005,-793,-378,-1084,-456,-143,-895,-68,30,-374,-296,-145,-366,-48,247,-585,-393,-418,-776,-604
-375,-679,-513,-88,-926,-170,184,-627,15,94,-243,-173,-13,-272,96,398,-292,-339,-253,-612,-592
-327,-634,-423,-34,-880,-124,223,-494,118,223,-178,-103,99,-229,137,435,-130,-252,-274,-561,-599
-580,-938,-651,-296,-1005,-380,-84,-675,109,245,-269,-175,44,-303,24,314,-323,-234,-437,-690,-617
-789,-1179,-888,-519,-1140,-601,-312,-934,-22,113,-403,-295,-126,-397,-109,192,-630,-332,-518,-811,-615
-679,-1027,-815,-405,-1102,-478,-163,-930,-104,3,-400,-290,-174,-377,-65,237,-643,-414,-383,-754,-590
-391,-666,-514,-87,-938,-181,189,-663,-35,51,-265,-167,-48,-281,84,401,-356,-382,-185,-584,-570
-309,-586,-394,5,-872,-93,255,-490,91,201,-181,-83,98,-228,146,465,-149,-280,-167,-512,-574
-557,-892,-603,-259,-990,-361,-57,-652,98,261,-256,-162,67,-296,33,339,-306,-234,-329,-633,-592
-816,-1199,-898,-547,-1145,-633,-364,-936,-23,157,-401,-306,-100,-400,-114,192,-636,-310,-450,-805,-597
-759,-1119,-884,-492,-1143,-580,-286,-981,-125,23,-432,-340,-188,-407,-111,198,-716,-411,-350,-806,-583
-464,-751,-594,-167,-978,-264,78,-739,-85,21,-308,-227,-93,-316,33,349,-451,-409,-145,-655,-554
-303,-555,-395,19,-876,-94,258,-513,52,165,-175,-96,81,-226,149,477,-179,-304,-86,-563,-545
-479,-784,-542,-176,-955,-281,23,-590,102,261,-204,-121,102,-262,86,401,-248,-229,-247,-683,-563
-772,-1129,-859,-492,-1130,-589,-327,-877,-3,188,-354,-261,-52,-361,-64,251,-575,-286,-429,-890,-575
-793,-1148,-923,-525,-1160,-613,-328,-988,-122,52,-427,-332,-177,-404,-99,213,-728,-398,-404,-969,-564
-535,-825,-671,-242,-1027,-335,1,-801,-103,39,-329,-236,-106,-318,31,355,-528,-401,-228,-870,-540
-335,-596,-441,-27,-902,-124,228,-551,17,165,-204,-113,51,-232,152,479,-241,-307,-158,-779,-533
-459,-759,-526,-162,-948,-256,61,-576,92,281,-216,-121,104,-241,110,423,-253,-226,-292,-877,-555
-742,-1096,-822,-465,-1102,-543,-270,-841,11,228,-350,-245,-23,-338,-35,272,-556,-266,-474,-1079,-571
-804,-1155,-923,-529,-1160,-596,-316,-981,-107,86,-427,-320,-142,-379,-70,232,-739,-369,-468,-1156,-549
-562,-850,-697,-265,-1035,-340,-14,-809,-113,49,-340,-249,-97,-312,42,354,-561,-388,-300,-1041,-519
-347,-597,-448,-35,-906,-115,237,-557,-1,171,-210,-127,54,-222,169,484,-279,-304,-202,-907,-513
-414,-706,-473,-104,-917,-189,133,-533,82,292,-201,-105,112,-228,151,454,-248,-211,-292,-950,-532
-690,-1039,-753,-406,-1068,-481,-194,-776,39,266,-312,-206,17,-298,25,328,-509,-232,-473,-1109,-552
-788,-1142,-894,-511,-1143,-578,-286,-930,-80,130,-407,-307,-113,-356,-46,261,-699,-337,-487,-1184,-545
-564,-868,-693,-271,-1033,-348,-5,-805,-98,80,-333,-241,-88,-289,55,376,-571,-379,-306,-1066,-536
-331,-587,-435,-10,-903,-105,267,-550,20,187,-194,-101,68,-196,192,525,-275,-297,-187,-916,-535
-439,-749,-509,-133,-937,-237,99,-548,121,321,-188,-88,149,-199,159,480,-245,-202,-329,-955,-559
-763,-1137,-838,-485,-1109,-579,-295,-831,52,281,-337,-222,14,-313,-11,304,-558,-223,-537,-1135,-577
-842,-1222,-961,-575,-1180,-659,-367,-1002,-91,114,-440,-327,-147,-383,-88,236,-775,-345,-528,-1209,-561
-593,-904,-732,-308,-1061,-391,-60,-853,-117,39,-360,-270,-130,-330,16,350,-618,-391,-335,-1085,-531
-319,-575,-444,-11,-914,-111,245,-575,4,139,-204,-126,35,-221,166,500,-299,-311,-192,-923,-515
-364,-642,-443,-57,-914,-164,158,-517,106,268,-169,-86,127,-208,160,483,-213,-223,-268,-916,-535
-670,-1006,-732,-382,-1073,-477,-203,-768,69,257,-296,-198,32,-304,9,324,-484,-232,-454,-1065,-564
-825,-1187,-918,-551,-1171,-633,-362,-973,-57,122,-419,-314,-132,-394,-96,206,-733,-338,-488,-1151,-569
-656,-975,-771,-371,-1090,-446,-141,-880,-106,53,-382,-289,-140,-361,-31,273,-654,-392,-330,-1051,-553
-399,-657,-495,-81,-942,-177,172,-610,-11,129,-251,-163,-6,-263,102,416,-355,-335,-178,-886,-541
-389,-661,-439,-71,-911,-162,163,-505,100,266,-188,-107,106,-219,134,436,-219,-237,-204,-864,-560
-667,-994,-702,-358,-1059,-440,-165,-722,74,268,-296,-198,27,-297,12,295,-454,-230,-386,-1021,-584
-837,-1194,-911,-545,-1171,-613,-336,-950,-56,125,-416,-313,-133,-382,-93,191,-732,-342,-435,-1148,-582
-688,-1006,-798,-375,-1111,-456,-133,-902,-130,26,-398,-299,-170,-356,-39,257,-698,-423,-294,-1076,-569
-412,-669,-513,-73,-955,-168,204,-637,-52,83,-259,-176,-39,-258,109,417,-394,-380,-142,-909,-552
-379,-651,-436,-36,-918,-138,213,-510,70,222,-190,-106,80,-222,156,462,-220,-278,-187,-852,-564
-657,-988,-685,-335,-1050,-418,-126,-709,69,251,-286,-188,24,-306,34,331,-412,-255,-388,-982,-598
-883,-1262,-946,-582,-1190,-657,-383,-973,-64,124,-432,-324,-157,-410,-115,197,-733,-351,-490,-1135,-611
-778,-1119,-884,-469,-1156,-544,-241,-973,-153,6,-436,-331,-218,-400,-76,237,-758,-434,-379,-1100,-597
-463,-736,-574,-133,-994,-225,138,-707,-87,38,-292,-201,-91,-295,84,414,-460,-406,-190,-922,-572
-340,-599,-403,8,-905,-96,274,-505,59,191,-170,-80,75,-217,178,515,-206,-302,-182,-809,-572
-563,-865,-579,-226,-1011,-328,1,-626,96,260,-232,-130,71,-266,87,399,-315,-249,-361,-907,-601
-833,-1181,-870,-513,-1168,-606,-306,-904,-11,166,-380,-272,-86,-369,-67,248,-633,-321,-506,-1074,-608
-802,-1153,-892,-490,-1184,-582,-263,-981,-120,32,-427,-322,-187,-395,-87,233,-749,-415,-447,-1079,-598
-524,-808,-624,-186,-1041,-286,78,-760,-100,25,-324,-233,-116,-318,46,370,-518,-414,-264,-924,-577
-353,-619,-427,-1,-929,-113,260,-536,35,156,-202,-117,39,-237,152,474,-252,-311,-213,-795,-575
-507,-826,-552,-168,-990,-281,51,-597,104,256,-226,-128,73,-264,91,403,-297,-231,-366,-852,-599
-778,-1155,-850,-470,-1146,-576,-271,-869,18,182,-359,-256,-62,-360,-60,256,-597,-283,-526,-980,-608
-804,-1169,-919,-497,-1180,-597,-275,-977,-98,40,-433,-335,-178,-403,-101,214,-744,-394,-504,-972,-601
-557,-857,-688,-237,-1048,-336,34,-792,-79,26,-338,-242,-110,-320,24,348,-543,-402,-338,-807,-582
-350,-621,-452,-15,-918,-124,264,-542,53,150,-200,-113,50,-226,151,479,-251,-306,-250,-659,-574
-462,-773,-525,-136,-950,-238,100,-560,127,265,-213,-111,99,-235,112,432,-252,-217,-366,-700,-593
-751,-1136,-828,-454,-1107,-551,-257,-838,49,226,-346,-235,-36,-342,-33,278,-563,-245,-540,-863,-612
-828,-1222,-957,-545,-1175,-629,-338,-998,-73,93,-436,-324,-165,-386,-88,227,-769,-346,-529,-926,-607
-580,-915,-737,-287,-1048,-369,-35,-839,-78,48,-355,-246,-120,-311,27,352,-593,-375,-343,-798,-585
-328,-609,-455,-15,-896,-108,257,-555,54,154,-203,-107,49,-206,168,505,-257,-292,-213,-654,-574
-389,-696,-472,-88,-904,-186,152,-505,161,294,-163,-78,148,-192,167,480,-170,-190,-312,-681,-592
-692,-1066,-767,-425,-1063,-513,-215,-760,113,282,-293,-191,52,-289,21,318,-439,-199,-514,-873,-618
-827,-1230,-949,-579,-1153,-652,-366,-973,-16,138,-409,-303,-111,-366,-70,222,-697,-306,-544,-1018,-621
-636,-990,-786,-369,-1063,-445,-129,-891,-63,48,-368,-264,-120,-323,8,310,-618,-371,-385,-971,-592
-352,-639,-488,-60,-902,-154,220,-613,41,119,-220,-117,25,-216,160,475,-308,-315,-214,-842,-581
-327,-635,-425,-38,-868,-146,233,-501,163,256,-152,-48,147,-171,199,506,-151,-217,-252,-850,-592
-610,-979,-700,-346,-1012,-453,-106,-720,150,278,-258,-137,77,-257,72,361,-375,-200,-456,-1022,-617
-810,-1221,-944,-564,-1148,-670,-323,-959,33,169,-377,-271,-76,-345,-47,231,-659,-290,-543,-1177,-617
-686,-1060,-851,-426,-1101,-540,-153,-930,-25,84,-362,-274,-104,-320,2,277,-635,-356,-426,-1134,-596
-405,-714,-555,-119,-951,-244,182,-663,55,139,-225,-147,28,-222,141,431,-341,-309,-261,-983,-580
-341,-650,-444,-47,-902,-180,228,-517,176,276,-144,-66,147,-177,189,479,-158,-212,-285,-939,-586
-587,-954,-672,-305,-1025,-437,-75,-693,174,311,-225,-137,96,-252,73,354,-340,-187,-467,-1073,-611
-799,-1211,-910,-534,-1158,-664,-315,-955,42,175,-367,-262,-83,-351,-61,227,-644,-286,-575,-1214,-615
-703,-1083,-853,-442,-1132,-556,-177,-964,-46,46,-378,-276,-149,-352,-35,260,-674,-378,-466,-1180,-599
-427,-729,-568,-134,-980,-256,170,-708,13,76,-241,-159,-30,-248,111,418,-404,-348,-299,-1002,-576
-329,-622,-422,-30,-905,-153,270,-515,139,220,-149,-73,118,-192,168,488,-178,-255,-300,-871,-580
-554,-904,-616,-279,-1006,-399,-26,-653,167,282,-219,-132,93,-254,67,366,-308,-211,-491,-860,-612
-820,-1220,-917,-575,-1154,-677,-338,-937,53,169,-377,-273,-89,-369,-94,205,-634,-289,-635,-803,-626
-777,-1170,-925,-540,-1154,-639,-282,-1004,-62,23,-424,-320,-193,-400,-106,204,-728,-398,-557,-476,-616
-479,-797,-645,-218,-996,-326,77,-774,-39,8,-307,-218,-111,-312,33,350,-470,-397,-357,80,-597
-290,-582,-436,-13,-882,-141,276,-538,92,140,-179,-92,57,-223,148,469,-182,-310,-291,623,-600
-434,-785,-560,-179,-944,-311,65,-590,154,234,-212,-106,84,-254,86,395,-216,-237,-433,845,-625
-740,-1142,-880,-508,-1114,-626,-291,-878,61,167,-367,-254,-64,-358,-77,226,-540,-292,-610,746,-636
-782,-1184,-961,-559,-1165,-662,-318,-1009,-72,32,-449,-336,-198,-415,-124,184,-714,-399,-579,519,-617
-524,-863,-718,-276,-1039,-392,-4,-832,-59,17,-348,-244,-124,-332,15,324,-520,-413,-401,261,-582
-324,-621,-478,-47,-926,-182,224,-582,75,161,-197,-103,54,-223,161,465,-230,-306,-315,-75,-565
-445,-777,-556,-173,-968,-308,56,-597,164,289,-187,-91,112,-223,132,416,-228,-216,-439,-624,-576
-735,-1129,-853,-495,-1132,-608,-286,-861,92,242,-314,-207,-8,-309,-5,272,-535,-238,-611,-1200,-585
-789,-1188,-947,-553,-1179,-660,-327,-996,-23,105,-401,-297,-134,-358,-50,215,-705,-344,-585,-1533,-578
-552,-890,-722,-302,-1058,-413,-35,-838,-32,70,-314,-229,-82,-285,60,337,-539,-367,-401,-1545,-551
-329,-623,-478,-60,-928,-173,224,-588,88,187,-177,-98,72,-185,193,473,-243,-281,-283,-1454,-537
-411,-748,-531,-155,-949,-261,96,-568,171,304,-166,-81,138,-190,175,443,-207,-192,-371,-1478,-559
-721,-1128,-838,-487,-1119,-583,-265,-837,115,269,-303,-204,13,-290,21,281,-506,-216,-543,-1628,-579
-849,-1270,-1011,-630,-1212,-708,-388,-1031,-18,124,-409,-308,-140,-359,-62,197,-749,-320,-539,-1683,-578
-629,-998,-823,-391,-1109,-471,-112,-909,-47,61,-346,-259,-121,-297,28,306,-630,-368,-331,-1543,-554
-361,-657,-534,-93,-959,-183,205,-624,70,154,-195,-120,42,-184,177,461,-302,-298,-162,-1338,-541
-380,-693,-507,-110,-940,-212,160,-530,195,301,-141,-69,156,-159,194,465,-172,-197,-205,-1291,-562
-687,-1067,-800,-442,-1097,-532,-210,-770,166,312,-262,-185,70,-263,48,308,-423,-186,-380,-1419,-589
-853,-1271,-1019,-634,-1211,-719,-404,-1009,30,172,-391,-309,-102,-353,-65,184,-713,-289,-409,-1499,-590
-686,-1053,-877,-452,-1132,-531,-186,-949,-35,72,-361,-290,-136,-321,-10,255,-668,-364,-214,-1397,-574
-383,-679,-566,-125,-962,-216,170,-672,53,138,-209,-149,11,-213,143,427,-364,-313,-1,-1204,-555
-323,-624,-467,-62,-910,-155,205,-522,174,282,-133,-67,140,-160,201,468,-182,-212,3,-1141,-563
-590,-950,-713,-350,-1045,-437,-126,-713,178,316,-219,-146,97,-232,87,334,-364,-185,-173,-1261,-585
-816,-1216,-972,-593,-1183,-679,-385,-969,52,194,-364,-285,-73,-331,-50,196,-657,-280,-269,-1364,-591
-710,-1083,-909,-489,-1137,-572,-250,-959,-20,85,-372,-296,-128,-322,-21,233,-664,-357,-147,-1296,-571
-430,-734,-622,-180,-983,-278,86,-705,47,130,-237,-176,-10,-226,125,389,-393,-318,38,-1097,-558
-337,-639,-492,-74,-918,-183,177,-541,167,267,-147,-73,124,-166,200,462,-189,-219,42,-992,-562
-561,-912,-685,-307,-1024,-413,-94,-682,186,321,-202,-130,102,-211,112,355,-321,-176,-126,-1079,-591
-801,-1194,-949,-554,-1169,-658,-351,-952,69,209,-340,-258,-63,-311,-35,218,-637,-258,-235,-1218,-600
-731,-1110,-922,-489,-1149,-580,-254,-988,-30,78,-377,-292,-145,-322,-27,226,-699,-358,-131,-1194,-587
-445,-758,-639,-179,-996,-275,99,-740,19,94,-255,-181,-47,-236,119,379,-429,-345,53,-1022,-568
-313,-610,-465,-30,-905,-139,235,-529,153,235,-140,-77,110,-164,211,477,-171,-243,62,-890,-567
-512,-860,-621,-247,-986,-344,-22,-620,206,330,-192,-125,114,-213,127,379,-252,-177,-115,-969,-588
-790,-1196,-916,-555,-1138,-634,-347,-902,110,255,-341,-265,-36,-321,-30,216,-570,-232,-285,-1117,-600
-770,-1176,-948,-542,-1151,-618,-310,-989,-15,100,-406,-328,-157,-354,-64,198,-699,-349,-240,-1121,-591
-471,-808,-666,-228,-1008,-299,55,-772,8,86,-291,-223,-73,-265,78,355,-461,-350,-53,-950,-567
-292,-602,-447,-33,-891,-111,253,-531,140,221,-162,-106,89,-182,192,469,-175,-253,-5,-802,-566
-463,-821,-582,-209,-954,-290,29,-595,209,325,-190,-119,114,-211,130,389,-226,-167,-166,-850,-591
-735,-1153,-879,-502,-1113,-583,-299,-868,113,248,-335,-254,-32,-313,-23,231,-530,-224,-342,-994,-606
-751,-1163,-941,-525,-1142,-593,-296,-972,-7,104,-406,-331,-150,-361,-57,193,-666,-334,-307,-994,-593
-494,-840,-701,-247,-1012,-331,11,-788,10,89,-312,-250,-81,-286,64,322,-465,-340,-140,-835,-575
-297,-608,-471,-37,-895,-124,230,-545,142,215,-179,-124,86,-189,191,446,-187,-242,-67,-692,-569
-422,-773,-553,-164,-940,-257,55,-569,213,318,-182,-121,140,-202,151,390,-189,-158,-213,-729,-591
-704,-1118,-844,-472,-1097,-562,-283,-828,141,264,-317,-235,15,-298,7,238,-476,-197,-400,-879,-611
-765,-1172,-944,-538,-1142,-625,-339,-967,32,123,-399,-310,-107,-340,-43,182,-648,-305,-399,-912,-609
-530,-882,-725,-285,-1021,-375,-47,-810,27,77,-319,-241,-60,-275,59,297,-478,-333,-230,-762,-584
-310,-615,-476,-46,-888,-140,212,-558,144,185,-168,-106,97,-178,192,438,-188,-244,-134,-601,-576
-384,-718,-508,-125,-900,-220,107,-531,216,292,-159,-93,157,-187,159,411,-147,-172,-243,-608,-598
-670,-1069,-794,-430,-1054,-522,-230,-788,159,253,-289,-210,38,-290,15,257,-420,-197,-441,-756,-628
-789,-1204,-949,-552,-1143,-642,-342,-981,33,106,-395,-305,-113,-361,-71,172,-645,-306,-482,-825,-625
-576,-944,-766,-327,-1040,-410,-75,-857,0,41,-342,-252,-102,-306,16,277,-542,-364,-323,-706,-603
-326,-628,-478,-40,-896,-128,234,-584,104,131,-191,-115,45,-208,163,436,-235,-297,-196,-531,-593
-379,-702,-482,-87,-896,-178,156,-511,212,266,-147,-74,150,-190,172,429,-134,-197,-289,-525,-605
-683,-1072,-774,-417,-1053,-495,-206,-746,171,261,-274,-183,57,-290,23,274,-397,-208,-478,-687,-631
-834,-1254,-974,-586,-1163,-650,-359,-967,30,120,-400,-304,-113,-369,-82,173,-677,-316,-510,-793,-625
-649,-1020,-815,-381,-1084,-446,-123,-893,-27,32,-357,-266,-127,-331,-2,259,-619,-381,-333,-692,-591
-359,-658,-512,-65,-923,-145,228,-614,56,96,-209,-132,4,-225,154,418,-304,-337,-145,-513,-577
-325,-636,-440,-26,-884,-113,249,-489,174,236,-144,-65,124,-187,199,446,-144,-247,-158,-469,-595
-598,-965,-692,-317,-1017,-397,-85,-691,168,268,-242,-158,64,-266,71,303,-358,-224,-323,-611,-625
-795,-1202,-928,-546,-1141,-609,-316,-935,44,149,-382,-295,-96,-367,-62,167,-640,-317,-386,-747,-629
-679,-1053,-852,-433,-1098,-496,-180,-916,-15,62,-371,-299,-129,-345,-21,211,-627,-379,-255,-713,-611
-398,-711,-563,-130,-941,-209,143,-652,68,120,-242,-173,4,-245,124,361,-335,-328,-70,-574,-594
-326,-643,-449,-54,-873,-130,195,-496,201,268,-151,-83,146,-185,185,415,-144,-218,-63,-536,-597
-566,-941,-665,-317,-990,-385,-112,-673,204,302,-238,-158,97,-259,66,288,-312,-192,-230,-690,-618
-790,-1209,-930,-568,-1133,-629,-379,-947,83,181,-379,-278,-74,-361,-63,156,-626,-285,-343,-864,-617
-696,-1090,-886,-473,-1109,-534,-260,-957,-10,57,-390,-300,-149,-361,-41,181,-665,-379,-242,-873,-599
-408,-731,-596,-162,-953,-234,97,-696,49,88,-261,-185,-25,-257,110,346,-373,-350,-68,-750,-580
-303,-612,-449,-42,-875,-120,199,-501,187,234,-156,-85,139,-193,192,437,-133,-244,-87,-691,-585
-514,-889,-637,-280,-975,-360,-73,-631,220,317,-209,-126,138,-247,103,331,-242,-176,-297,-834,-614
-793,-1213,-940,-579,-1138,-650,-391,-924,108,227,-347,-261,-30,-348,-49,182,-580,-233,-475,-1034,-622
-755,-1168,-949,-548,-1145,-608,-330,-993,-17,83,-397,-315,-136,-372,-64,176,-679,-342,-422,-1081,-609
-463,-808,-666,-231,-997,-301,30,-771,17,74,-276,-203,-49,-274,84,333,-437,-347,-254,-955,-586
-272,-580,-437,-15,-878,-101,250,-528,154,213,-134,-66,124,-180,212,465,-146,-251,-210,-852,-582
-421,-766,-543,-170,-932,-249,59,-574,221,319,-152,-69,157,-200,156,406,-180,-176,-373,-935,-602
-723,-1126,-852,-492,-1102,-562,-291,-855,132,254,-302,-206,8,-308,2,242,-490,-228,-575,-1111,-613
-779,-1192,-955,-558,-1157,-609,-331,-988,-3,102,-400,-308,-136,-376,-57,180,-672,-350,-568,-1165,-604
-533,-891,-731,-293,-1036,-353,-30,-815,0,73,-319,-241,-97,-307,54,296,-500,-374,-395,-1031,-586
-310,-623,-474,-44,-900,-111,233,-549,121,199,-181,-107,74,-200,187,435,-205,-280,-282,-893,-576
-418,-760,-535,-154,-930,-209,98,-543,212,318,-170,-86,143,-188,173,410,-181,-189,-382,-928,-590
-714,-1106,-825,-467,-1096,-508,-243,-805,155,281,-291,-196,35,-274,41,255,-465,-213,-562,-1092,-605
-798,-1197,-955,-554,-1168,-589,-323,-964,39,143,-379,-286,-96,-328,-13,189,-663,-312,-550,-1158,-597
-583,-923,-767,-321,-1065,-361,-62,-835,22,85,-307,-230,-66,-268,84,291,-529,-342,-370,-1043,-568
-347,-632,-506,-68,-923,-111,212,-571,137,193,-164,-100,92,-163,221,432,-215,-259,-231,-889,-560
-387,-708,-512,-126,-919,-182,110,-522,245,334,-135,-61,182,-151,216,417,-133,-163,-298,-893,-581
-667,-1059,-796,-438,-1070,-496,-252,-768,199,327,-268,-181,85,-254,67,252,-394,-170,-467,-1053,-603
-818,-1225,-988,-607,-1169,-654,-421,-986,64,183,-385,-293,-84,-333,-39,152,-652,-279,-497,-1152,-597
-631,-993,-830,-407,-1084,-458,-193,-902,10,90,-341,-259,-98,-291,32,237,-574,-339,-331,-1047,-570
-333,-641,-523,-89,-919,-155,147,-614,117,173,-188,-108,57,-177,185,411,-258,-277,-158,-865,-552
-308,-624,-456,-54,-885,-142,152,-489,241,317,-121,-43,185,-144,228,439,-98,-176,-199,-814,-565
-593,-969,-722,-362,-1023,-447,-193,-699,238,341,-229,-133,120,-231,91,296,-313,-161,-394,-950,-592
-797,-1205,-961,-581,-1145,-658,-411,-948,99,204,-378,-273,-60,-336,-51,173,-608,-266,-471,-1082,-596
-662,-1037,-872,-440,-1093,-515,-228,-931,9,93,-376,-272,-115,-324,-8,225,-611,-352,-325,-1024,-576
-368,-680,-573,-114,-944,-201,145,-671,76,135,-238,-143,12,-223,145,402,-326,-318,-141,-850,-557
-282,-602,-450,-21,-884,-106,229,-507,192,273,-149,-51,145,-164,220,475,-125,-223,-135,-778,-558
-529,-897,-658,-273,-996,-351,-54,-662,201,322,-222,-116,116,-224,112,358,-282,-185,-310,-900,-576
-781,-1188,-928,-529,-1149,-601,-315,-926,74,198,-365,-267,-66,-336,-43,208,-592,-274,-437,-1054,-578
-719,-1094,-905,-461,-1131,-525,-203,-947,-19,78,-396,-311,-138,-351,-39,224,-641,-366,-346,-1035,-561
-452,-752,-626,-156,-986,-231,135,-703,41,102,-265,-203,-31,-257,106,373,-379,-348,-164,-872,-549
-334,-627,-472,-24,-903,-107,255,-515,170,241,-166,-92,115,-185,194,461,-151,-248,-137,-771,-556
-530,-877,-643,-239,-995,-321,-12,-637,208,317,-220,-128,117,-220,124,367,-258,-192,-297,-862,-582
-787,-1183,-925,-516,-1145,-592,-309,-914,91,215,-372,-265,-45,-325,-20,211,-580,-262,-422,-1017,-594
-760,-1141,-946,-498,-1151,-565,-274,-987,-26,73,-422,-321,-153,-358,-40,197,-690,-367,-342,-1018,-579
-479,-796,-677,-204,-1001,-271,55,-763,7,75,-306,-220,-65,-261,99,336,-450,-356,-153,-867,-558
-301,-605,-465,-26,-885,-98,227,-526,150,227,-164,-93,114,-171,221,445,-168,-245,-91,-737,-553
-468,-812,-594,-211,-943,-279,0,-576,233,353,-186,-110,164,-193,165,368,-201,-147,-235,-797,-578
-763,-1170,-898,-546,-1104,-591,-363,-847,138,291,-335,-255,16,-297,0,191,-508,-196,-399,-944,-595
-786,-1197,-975,-591,-1139,-623,-390,-973,15,137,-420,-338,-111,-340,-48,139,-669,-308,-362,-962,-588
-510,-863,-722,-302,-1002,-344,-68,-793,18,89,-339,-261,-67,-264,63,264,-481,-340,-158,-806,-567
-265,-564,-446,-32,-854,-86,213,-521,160,212,-175,-100,116,-152,212,411,-153,-237,-34,-635,-562
-341,-682,-498,-115,-872,-178,90,-499,244,331,-159,-84,189,-153,185,376,-108,-152,-146,-646,-583
-643,-1042,-805,-441,-1035,-503,-269,-765,183,304,-292,-204,64,-255,26,214,-401,-177,-342,-794,-611
-758,-1176,-970,-569,-1119,-627,-386,-951,42,156,-407,-321,-95,-335,-67,121,-626,-297,-377,-871,-608
-555,-916,-789,-345,-1020,-403,-121,-830,15,95,-349,-265,-84,-291,24,229,-507,-334,-222,-753,-580
-304,-616,-515,-70,-876,-134,168,-570,121,187,-201,-134,67,-196,163,377,-195,-258,-98,-605,-562
-354,-694,-522,-116,-882,-186,97,-517,216,305,-173,-97,150,-181,160,374,-121,-175,-191,-631,-573
-644,-1044,-797,-421,-1036,-491,-237,-760,163,272,-307,-206,39,-287,7,222,-395,-204,-381,-838,-597
-763,-1181,-966,-547,-1129,-617,-352,-960,25,113,-421,-308,-138,-367,-90,136,-644,-324,-421,-981,-593
-582,-948,-806,-333,-1049,-406,-102,-870,-33,13,-388,-282,-159,-343,-28,216,-560,-399,-264,-927,-569
-327,-635,-524,-48,-907,-131,221,-604,69,94,-245,-144,-12,-247,118,375,-260,-332,-130,-807,-553
-330,-651,-485,-44,-887,-132,204,-504,172,230,-201,-103,88,-234,131,392,-132,-249,-192,-821,-569
-632,-1017,-760,-355,-1040,-450,-152,-737,148,241,-318,-203,0,-330,-7,246,-373,-245,-403,-1001,-600
-817,-1244,-990,-572,-1164,-642,-364,-991,11,100,-459,-331,-172,-433,-131,124,-666,-353,-483,-1149,-610
-679,-1064,-884,-423,-1110,-497,-188,-953,-56,-4,-443,-329,-213,-405,-80,187,-646,-431,-339,-1101,-588
-371,-687,-571,-90,-941,-179,173,-669,30,60,-290,-186,-60,-291,88,354,-329,-387,-149,-938,-569
-294,-606,-450,-9,-885,-106,235,-502,165,220,-187,-86,102,-210,171,422,-108,-273,-152,-876,-573
-547,-910,-678,-287,-1003,-381,-89,-666,175,270,-265,-158,69,-273,69,286,-259,-232,-340,-1013,-596
-790,-1199,-953,-557,-1152,-631,-383,-932,49,151,-416,-302,-110,-378,-90,124,-580,-320,-451,-1174,-602
-699,-1093,-918,-471,-1130,-545,-278,-963,-49,22,-438,-330,-184,-383,-77,133,-636,-409,-334,-1153,-588
-406,-726,-630,-153,-968,-242,76,-715,12,44,-299,-212,-73,-283,68,282,-362,-387,-139,-967,-571
-271,-581,-458,-12,-868,-105,207,-513,146,182,-188,-104,84,-213,152,369,-117,-287,-103,-805,-577
-478,-841,-631,-241,-966,-332,-63,-636,186,255,-246,-146,87,-258,65,260,-223,-233,-274,-744,-610
-747,-1161,-925,-536,-1115,-614,-382,-914,87,162,-386,-278,-67,-363,-76,104,-530,-297,-416,-621,-629
-726,-1132,-959,-521,-1128,-599,-343,-984,-27,30,-430,-329,-161,-394,-94,95,-630,-400,-358,-261,-627
-454,-798,-692,-232,-977,-307,-10,-759,-5,24,-321,-246,-92,-321,27,235,-396,-403,-174,263,-617
-283,-601,-483,-44,-863,-129,182,-538,102,142,-218,-149,39,-252,114,334,-132,-327,-110,734,-619
-443,-803,-605,-200,-928,-290,-16,-604,151,232,-251,-170,48,-290,46,259,-189,-265,-249,885,-645
-732,-1140,-888,-495,-1089,-573,-320,-868,79,175,-381,-286,-76,-388,-89,123,-486,-305,-417,693,-659
-768,-1161,-954,-517,-1133,-592,-319,-975,-24,56,-447,-348,-180,-425,-113,108,-632,-404,-395,359,-639
-499,-813,-684,-206,-1001,-300,40,-780,4,48,-323,-240,-103,-327,34,283,-438,-416,-210,18,-600
-311,-588,-449,19,-884,-88,279,-541,143,187,-178,-96,70,-226,172,440,-159,-313,-147,-356,-581
-512,-843,-598,-178,-972,-291,36,-622,216,300,-208,-111,99,-261,104,371,-231,-233,-339,-881,-594
-820,-1212,-918,-509,-1151,-604,-308,-918,117,234,-364,-256,-53,-380,-58,212,-563,-277,-519,-1366,-607
-828,-1205,-974,-521,-1183,-609,-291,-1021,-11,87,-428,-318,-174,-406,-84,200,-719,-381,-465,-1585,-594
-544,-846,-709,-224,-1047,-311,56,-820,-4,61,-312,-213,-100,-307,60,352,-498,-394,-282,-1518,-559
-312,-573,-448,30,-907,-71,311,-545,136,186,-159,-69,76,-196,201,495,-183,-300,-178,-1398,-553
-423,-719,-526,-94,-941,-197,144,-559,218,301,-156,-62,139,-201,168,448,-174,-219,-299,-1433,-579
-720,-1090,-842,-435,-1111,-524,-229,-839,157,263,-299,-189,20,-299,24,276,-479,-246,-490,-1568,-603
-813,-1197,-985,-546,-1180,-624,-328,-1009,29,126,-392,-290,-120,-362,-46,194,-688,-348,-498,-1604,-598
-582,-908,-774,-312,-1060,-383,-60,-861,17,89,-316,-232,-89,-301,53,284,-543,-369,-313,-1452,-576
-345,-619,-509,-60,-914,-138,206,-591,134,204,-171,-98,71,-193,192,416,-240,-290,-181,-1273,-566
-403,-713,-531,-136,-924,-205,86,-548,231,329,-151,-75,151,-178,188,383,-174,-203,-264,-1260,-590
-685,-1061,-813,-446,-1079,-513,-261,-798,188,311,-274,-180,56,-259,62,230,-438,-213,-431,-1389,-614
-795,-1182,-975,-573,-1157,-633,-375,-982,55,167,-369,-279,-91,-321,-19,142,-663,-313,-432,-1452,-610
-587,-925,-796,-352,-1059,-423,-124,-875,17,87,-313,-241,-86,-273,59,230,-550,-368,-251,-1331,-584
-322,-605,-514,-68,-909,-150,176,-604,125,170,-178,-109,61,-184,198,380,-234,-300,-94,-1145,-575
-339,-652,-493,-87,-895,-169,107,-521,237,309,-134,-64,161,-162,214,392,-114,-200,-152,-1108,-594
-641,-1024,-778,-413,-1049,-469,-271,-757,198,305,-268,-176,62,-267,62,232,-370,-198,-342,-1246,-615
-824,-1240,-1000,-614,-1167,-648,-477,-996,61,166,-399,-303,-111,-359,-65,118,-666,-300,-401,-1352,-616
-668,-1032,-865,-431,-1091,-465,-261,-931,-2,67,-375,-286,-140,-333,-8,189,-619,-377,-241,-1262,-589
-362,-661,-551,-96,-924,-146,120,-646,87,123,-230,-149,8,-222,147,362,-306,-335,-63,-1064,-575
-299,-592,-445,-19,-863,-74,181,-479,217,267,-147,-61,147,-175,202,418,-98,-229,-80,-973,-584
-567,-913,-681,-300,-994,-346,-140,-656,214,298,-238,-142,100,-254,79,288,-278,-199,-272,-1085,-611
-811,-1200,-953,-557,-1143,-593,-401,-932,85,177,-390,-289,-85,-372,-70,151,-599,-295,-379,-1195,-620
-714,-1075,-897,-452,-1112,-488,-250,-947,-12,48,-415,-308,-167,-374,-48,189,-642,-390,-258,-1145,-604
-413,-700,-591,-112,-948,-165,129,-687,47,80,-276,-182,-42,-269,101,358,-363,-359,-62,-954,-585
-308,-590,-444,4,-879,-59,243,-503,179,226,-175,-76,105,-201,180,452,-141,-259,-53,-843,-594
-534,-873,-647,-239,-985,-299,-48,-647,204,290,-239,-132,87,-254,90,341,-274,-211,-231,-935,-620
-794,-1181,-926,-519,-1135,-567,-345,-917,89,176,-391,-275,-80,-368,-63,190,-588,-296,-361,-1069,-624
-741,-1117,-916,-469,-1124,-524,-265,-962,-11,49,-422,-304,-157,-383,-65,197,-652,-384,-287,-1033,-610
-470,-773,-646,-181,-978,-239,69,-727,35,63,-299,-208,-67,-291,72,339,-400,-372,-112,-856,-591
-319,-611,-471,-26,-881,-95,211,-526,159,210,-178,-95,95,-211,169,438,-150,-262,-69,-731,-594
-497,-846,-619,-232,-958,-297,-42,-622,201,301,-221,-132,104,-248,102,337,-235,-194,-221,-812,-617
-776,-1178,-915,-543,-1120,-587,-379,-913,105,205,-362,-270,-51,-354,-54,171,-569,-260,-359,-963,-625
-767,-1156,-953,-551,-1133,-585,-357,-1010,-14,58,-424,-328,-164,-379,-73,143,-695,-368,-291,-970,-610
-488,-811,-693,-257,-991,-297,-19,-794,14,50,-315,-234,-76,-282,60,269,-456,-369,-91,-798,-586
-305,-593,-474,-60,-875,-121,175,-546,150,198,-178,-116,102,-182,182,379,-161,-265,-25,-648,-583
-455,-793,-593,-227,-933,-287,-37,-592,223,313,-197,-130,139,-208,126,302,-188,-178,-171,-690,-609
-741,-1136,-893,-544,-1090,-586,-382,-869,147,251,-336,-252,2,-309,-25,135,-489,-218,-335,-841,-623
-785,-1178,-984,-600,-1137,-623,-425,-997,21,107,-422,-331,-129,-358,-72,89,-665,-325,-308,-873,-612
-521,-855,-739,-316,-997,-343,-101,-810,24,77,-325,-249,-78,-283,50,221,-471,-341,-105,-719,-589
-266,-552,-446,-34,-841,-71,194,-523,163,201,-161,-97,99,-165,200,382,-144,-253,22,-557,-582
-356,-683,-501,-136,-868,-177,57,-509,250,321,-138,-75,170,-160,178,362,-111,-167,-91,-579,-602
-660,-1044,-808,-465,-1033,-491,-293,-781,182,285,-284,-201,44,-272,18,199,-412,-202,-272,-749,-630
-773,-1177,-962,-582,-1123,-600,-396,-962,46,138,-398,-308,-116,-352,-70,125,-640,-317,-290,-823,-626
-572,-918,-780,-361,-1028,-380,-118,-839,16,66,-340,-259,-110,-309,19,232,-520,-366,-131,-708,-601
-329,-622,-504,-80,-897,-113,181,-581,121,157,-193,-128,37,-217,145,378,-213,-296,-15,-562,-588
-374,-707,-513,-120,-913,-171,104,-537,215,278,-165,-93,117,-212,146,379,-143,-216,-112,-567,-600
-670,-1057,-798,-424,-1073,-472,-230,-793,164,253,-288,-191,19,-314,0,245,-414,-236,-301,-724,-623
-806,-1203,-974,-562,-1173,-613,-353,-998,24,87,-394,-293,-149,-387,-93,166,-673,-360,-343,-814,-618
-629,-968,-814,-354,-1093,-416,-107,-913,-29,-12,-345,-257,-164,-349,-23,254,-594,-430,-206,-710,-592
-365,-648,-526,-63,-940,-142,218,-643,71,70,-204,-122,-13,-252,123,415,-289,-368,-64,-546,-584
-375,-674,-488,-77,-921,-156,184,-546,185,214,-148,-60,105,-225,148,443,-160,-273,-133,-522,-606
-671,-1033,-763,-398,-1069,-471,-176,-778,163,230,-267,-168,24,-316,4,288,-406,-263,-332,-684,-633
-866,-1258,-1001,-614,-1198,-670,-404,-1031,33,96,-401,-302,-151,-400,-108,162,-706,-360,-413,-823,-633
-711,-1062,-885,-446,-1133,-501,-200,-985,-26,-4,-379,-281,-175,-365,-41,225,-664,-434,-278,-766,-611
-416,-699,-571,-125,-965,-192,153,-689,83,82,-218,-131,-9,-243,131,391,-326,-370,-106,-597,-589
-386,-689,-501,-98,-916,-170,148,-571,203,238,-158,-69,105,-204,170,420,-183,-262,-135,-585,-598
-639,-1012,-754,-376,-1056,-444,-172,-788,169,251,-265,-171,25,-278,45,283,-421,-257,-296,-769,-618
-817,-1212,-963,-572,-1177,-622,-367,-1005,52,134,-377,-282,-113,-347,-51,180,-687,-346,-367,-921,-614
-676,-1022,-840,-415,-1110,-462,-179,-929,5,61,-353,-274,-123,-323,4,232,-609,-405,-245,-887,-591
-379,-660,-526,-92,-936,-150,179,-640,102,135,-207,-132,20,-210,155,392,-298,-342,-69,-758,-581
-339,-628,-444,-40,-893,-112,202,-519,232,279,-121,-48,154,-160,213,442,-138,-236,-90,-746,-590
-625,-975,-707,-349,-1040,-415,-150,-726,225,300,-227,-135,96,-239,79,293,-352,-206,-297,-924,-615
-829,-1220,-948,-578,-1165,-630,-390,-970,111,188,-358,-265,-58,-328,-49,166,-629,-283,-388,-1087,-620
-696,-1055,-851,-447,-1110,-495,-222,-937,51,97,-351,-270,-99,-312,-4,215,-614,-353,-268,-1066,-601
-407,-698,-554,-137,-941,-198,122,-668,147,158,-214,-139,37,-209,141,373,-324,-297,-100,-933,-582
-323,-624,-434,-55,-874,-124,185,-504,273,311,-131,-47,167,-156,206,426,-122,-193,-102,-891,-589
-561,-924,-653,-318,-994,-379,-125,-675,275,358,-205,-117,134,-221,97,304,-298,-155,-285,-1029,-607
-780,-1186,-914,-566,-1135,-608,-379,-939,148,229,-345,-245,-34,-320,-48,178,-610,-245,-382,-1173,-605
-688,-1060,-866,-472,-1106,-509,-248,-949,52,95,-354,-262,-103,-312,-27,209,-653,-334,-272,-1146,-582
-398,-704,-579,-163,-949,-214,105,-693,117,130,-222,-140,13,-211,126,374,-365,-306,-97,-978,-568
-288,-589,-423,-38,-869,-104,211,-499,253,282,-121,-42,165,-148,205,461,-124,-204,-90,-887,-575
-518,-888,-628,-290,-986,-360,-85,-642,286,357,-189,-93,149,-216,102,345,-250,-150,-287,-995,-611
-797,-1225,-940,-596,-1152,-656,-419,-942,176,263,-336,-228,-26,-321,-46,196,-591,-219,-440,-1172,-618
-763,-1180,-950,-572,-1157,-624,-359,-1011,51,105,-394,-287,-135,-352,-67,188,-698,-339,-369,-1186,-602
-464,-807,-659,-246,-1000,-309,15,-781,86,94,-263,-177,-50,-255,75,350,-450,-338,-168,-1020,-569
-265,-577,-424,-22,-878,-105,240,-534,221,229,-123,-43,126,-168,205,481,-147,-242,-93,-881,-558
-418,-777,-537,-184,-943,-260,36,-579,292,335,-141,-47,168,-185,162,414,-181,-162,-242,-938,-590
-726,-1142,-855,-520,-1111,-585,-330,-862,205,275,-290,-194,20,-286,1,240,-499,-213,-421,-1101,-606
-784,-1197,-958,-582,-1166,-634,-363,-1001,81,130,-375,-273,-112,-335,-49,186,-683,-323,-399,-1143,-609
-534,-882,-718,-306,-1041,-368,-45,-827,70,93,-295,-200,-64,-268,60,308,-510,-348,-213,-1004,-589
-314,-615,-462,-59,-908,-132,220,-570,192,210,-152,-69,100,-169,193,453,-211,-263,-110,-863,-586
-416,-756,-519,-160,-947,-247,75,-569,279,323,-150,-55,160,-170,163,410,-191,-181,-236,-896,-604
-701,-1104,-816,-479,-1111,-554,-276,-842,219,274,-282,-171,30,-273,19,255,-478,-211,-431,-1064,-618
-789,-1198,-944,-564,-1184,-628,-352,-1003,83,118,-377,-260,-117,-336,-49,188,-679,-322,-440,-1133,-601
-567,-914,-739,-315,-1080,-390,-61,-864,59,56,-299,-203,-82,-281,54,304,-534,-360,-279,-1009,-569
-336,-632,-480,-63,-939,-151,206,-607,162,160,-166,-79,66,-193,170,435,-242,-286,-165,-856,-560
-378,-707,-484,-114,-940,-205,122,-563,261,289,-131,-34,153,-177,175,437,-179,-193,-254,-862,-582
-647,-1028,-744,-400,-1085,-482,-200,-782,234,273,-232,-121,79,-251,61,311,-405,-203,-442,-1006,-602
-764,-1153,-890,-527,-1166,-599,-317,-945,114,146,-335,-226,-56,-324,-20,233,-604,-306,-484,-1077,-600
-558,-891,-703,-295,-1061,-373,-53,-829,72,78,-293,-188,-64,-285,50,326,-502,-358,-311,-968,-579
-308,-600,-437,-29,-909,-120,232,-569,181,186,-154,-51,77,-183,181,469,-214,-279,-180,-822,-574
-423,-762,-506,-160,-943,-251,47,-565,272,313,-154,-41,150,-193,147,413,-182,-186,-321,-860,-598
-751,-1163,-847,-525,-1121,-607,-358,-858,199,270,-304,-182,8,-314,-23,232,-497,-217,-535,-1021,-619
-819,-1230,-965,-598,-1179,-676,-412,-1018,58,109,-399,-282,-145,-379,-97,171,-697,-338,-512,-1076,-603
-541,-888,-719,-303,-1038,-386,-70,-846,45,54,-316,-209,-107,-306,24,298,-523,-378,-309,-926,-580
-274,-567,-433,-10,-881,-112,240,-565,168,163,-162,-71,58,-195,169,450,-199,-293,-177,-749,-576
-343,-660,-460,-76,-897,-187,137,-532,269,288,-134,-36,145,-189,165,441,-134,-203,-282,-736,-600
-651,-1040,-764,-409,-1064,-511,-227,-791,220,266,-263,-155,37,-285,16,284,-408,-217,-482,-882,-631
-791,-1203,-947,-564,-1155,-650,-373,-991,86,125,-375,-270,-117,-357,-70,191,-652,-318,-519,-966,-631
-606,-968,-779,-366,-1059,-439,-130,-882,32,38,-332,-242,-125,-317,-1,275,-557,-382,-354,-850,-599
-339,-645,-491,-76,-905,-159,189,-609,129,129,-184,-104,31,-215,151,433,-244,-314,-200,-668,-583
-355,-677,-455,-86,-885,-170,154,-521,243,271,-135,-52,146,-179,184,449,-127,-211,-258,-643,-587
-629,-1021,-725,-392,-1031,-462,-192,-744,216,292,-244,-144,75,-253,59,309,-369,-200,-443,-788,-607
-782,-1204,-915,-560,-1134,-620,-355,-960,81,160,-361,-255,-87,-328,-50,200,-637,-292,-484,-915,-607
-622,-993,-790,-380,-1059,-443,-135,-893,31,65,-326,-227,-103,-287,21,276,-575,-352,-328,-851,-586
-350,-657,-504,-80,-906,-149,199,-614,117,129,-189,-103,31,-195,166,426,-265,-295,-170,-708,-580
-313,-632,-427,-50,-867,-122,204,-483,249,282,-116,-41,164,-153,204,453,-90,-187,-208,-693,-595
-583,-969,-685,-352,-1004,-418,-151,-686,243,312,-223,-135,100,-241,65,306,-298,-162,-406,-881,-629
-815,-1242,-942,-604,-1144,-658,-412,-964,118,181,-365,-263,-80,-342,-75,172,-621,-266,-514,-1056,-633
-697,-1085,-864,-480,-1097,-524,-253,-953,32,51,-378,-276,-145,-335,-39,216,-630,-360,-383,-1046,-608
-392,-701,-545,-138,-932,-199,133,-676,100,84,-221,-133,-18,-222,132,394,-338,-328,-201,-905,-579
-283,-573,-390,-15,-849,-79,247,-482,243,234,-106,-17,145,-151,221,488,-93,-222,-196,-841,-568
-523,-863,-593,-272,-964,-326,-45,-620,276,312,-165,-69,135,-204,133,381,-222,-170,-384,-979,-589
-798,-1191,-893,-559,-1125,-601,-363,-905,159,215,-321,-214,-40,-311,-21,230,-555,-246,-519,-1161,-598
-759,-1144,-903,-519,-1120,-568,-294,-968,45,85,-367,-264,-144,-330,-34,230,-662,-357,-432,-1184,-593
-470,-784,-623,-205,-958,-261,68,-734,79,94,-254,-154,-50,-235,116,388,-422,-346,-235,-1033,-581
-303,-593,-423,-22,-847,-84,251,-507,218,236,-122,-33,124,-152,223,504,-150,-241,-174,-925,-585
-474,-818,-564,-212,-928,-276,18,-582,277,334,-155,-61,155,-182,161,424,-204,-165,-336,-1016,-616
-766,-1168,-875,-526,-1094,-574,-315,-860,193,266,-296,-194,11,-280,12,265,-522,-208,-497,-1184,-625
-770,-1176,-928,-538,-1118,-573,-302,-963,69,123,-364,-265,-108,-318,-29,241,-661,-313,-441,-1187,-603
-475,-812,-639,-221,-965,-257,72,-742,86,105,-252,-157,-41,-232,110,396,-426,-321,-229,-941,-584
-279,-590,-412,-8,-846,-60,280,-492,225,246,-117,-24,137,-141,233,524,-127,-226,-162,-617,-591
-461,-820,-556,-205,-923,-251,37,-560,278,348,-155,-56,153,-180,165,432,-174,-148,-314,-372,-630
-748,-1173,-873,-521,-1093,-552,-302,-854,172,262,-310,-196,-6,-286,3,268,-503,-207,-464,-130,-654
-740,-1165,-922,-529,-1116,-542,-286,-954,37,96,-380,-272,-139,-322,-33,228,-641,-328,-393,237,-651
-469,-821,-656,-229,-973,-252,57,-750,49,70,-270,-179,-62,-240,96,362,-420,-342,-203,731,-632
-268,-587,-414,0,-849,-47,290,-487,194,207,-120,-42,120,-142,224,491,-119,-246,-120,1024,-630
-416,-779,-515,-147,-908,-206,86,-516,279,337,-124,-36,178,-157,179,437,-125,-157,-269,886,-652
-732,-1157,-832,-484,-1087,-536,-287,-800,205,294,-266,-167,32,-266,19,275,-442,-198,-464,400,-658
-805,-1236,-950,-556,-1156,-610,-349,-966,74,152,-359,-250,-111,-317,-42,216,-645,-307,-458,-106,-638
-542,-907,-714,-271,-1033,-336,-20,-812,66,104,-267,-169,-69,-235,86,349,-489,-336,-270,-491,-598
-265,-573,-414,29,-876,-57,303,-524,204,230,-91,-4,126,-105,258,523,-158,-231,-130,-781,-582
-306,-649,-416,-25,-869,-108,214,-466,307,363,-55,34,218,-96,249,510,-71,-132,-213,-1099,-596
-610,-1016,-717,-360,-1033,-428,-160,-717,263,343,-190,-84,119,-198,92,353,-337,-131,-411,-1448,-621
-771,-1194,-914,-532,-1137,-591,-326,-932,129,199,-315,-207,-46,-283,-9,248,-591,-237,-450,-1644,-615
-595,-968,-761,-336,-1052,-399,-84,-840,85,121,-274,-183,-54,-248,60,325,-511,-295,-305,-1591,-589
-320,-635,-467,-33,-890,-112,245,-558,189,214,-126,-43,108,-143,212,486,-199,-225,-144,-1428,-579
-324,-655,-429,-31,-870,-123,210,-471,292,352,-74,8,215,-118,230,501,-86,-129,-205,-1402,-589
-600,-990,-691,-326,-1015,-411,-125,-694,267,361,-183,-83,135,-192,104,367,-320,-115,-388,-1536,-609
-778,-1194,-903,-524,-1131,-590,-311,-927,125,221,-305,-199,-33,-267,-5,262,-607,-226,-448,-1635,-601
-621,-987,-774,-352,-1057,-411,-97,-865,56,117,-276,-182,-64,-234,63,333,-563,-301,-299,-1558,-573
-338,-636,-473,-40,-900,-116,255,-588,143,181,-132,-42,77,-136,212,507,-261,-256,-136,-1366,-564
-306,-610,-391,-1,-864,-88,263,-453,259,321,-65,27,197,-103,253,545,-87,-159,-179,-1292,-575
-594,-969,-645,-311,-1013,-387,-100,-674,247,344,-174,-74,125,-196,109,393,-300,-140,-391,-1415,-613
-818,-1237,-905,-554,-1157,-616,-357,-945,116,211,-331,-210,-62,-310,-35,254,-615,-240,-487,-1543,-618
-698,-1087,-829,-435,-1113,-496,-203,-941,31,96,-336,-225,-121,-305,-5,293,-634,-329,-364,-1482,-599
-377,-694,-513,-89,-940,-174,182,-660,106,141,-189,-89,20,-191,159,468,-323,-294,-168,-1280,-584
-255,-564,-362,40,-855,-57,289,-467,241,291,-84,19,185,-117,250,558,-70,-186,-157,-1159,-592
-487,-855,-573,-217,-967,-310,-14,-608,271,366,-154,-46,180,-168,158,436,-197,-131,-343,-1243,-613
-757,-1180,-877,-510,-1124,-592,-332,-892,149,258,-318,-200,-3,-288,-7,273,-525,-213,-478,-1374,-616
-705,-1114,-876,-468,-1115,-543,-267,-950,34,123,-369,-255,-114,-313,-23,258,-619,-318,-385,-1342,-594
-418,-753,-593,-158,-957,-239,86,-718,62,125,-250,-152,-31,-221,120,407,-377,-314,-192,-1153,-576
-254,-568,-389,24,-848,-70,266,-489,194,262,-125,-33,128,-143,219,508,-114,-220,-135,-1011,-578
-431,-800,-538,-172,-933,-256,31,-574,242,351,-167,-56,146,-181,145,419,-185,-153,-295,-1079,-602
-708,-1140,-841,-474,-1101,-559,-299,-861,150,261,-305,-194,3,-287,-4,260,-495,-207,-457,-1230,-611
-720,-1140,-893,-489,-1123,-555,-284,-955,31,116,-375,-259,-112,-336,-42,236,-619,-323,-405,-1237,-605
-464,-809,-637,-207,-988,-280,39,-758,49,87,-268,-165,-45,-263,71,367,-412,-340,-228,-1070,-591
-269,-583,-404,8,-871,-78,264,-511,172,205,-137,-43,103,-181,181,487,-129,-260,-151,-918,-593
-402,-756,-492,-127,-923,-225,81,-543,235,304,-143,-50,140,-201,123,427,-149,-191,-279,-957,-613
-708,-1125,-817,-456,-1103,-533,-270,-838,140,241,-293,-178,-13,-319,-32,267,-482,-239,-455,-1103,-626
-785,-1201,-937,-531,-1172,-601,-330,-994,-1,89,-383,-267,-164,-374,-86,214,-693,-356,-438,-1138,-614
-540,-896,-708,-266,-1054,-336,-18,-831,-13,39,-299,-191,-126,-302,31,348,-534,-400,-255,-990,-589
-300,-597,-428,7,-908,-80,268,-549,117,158,-145,-53,51,-190,180,501,-209,-314,-140,-807,-579
-394,-725,-464,-92,-929,-183,137,-519,216,296,-121,-37,141,-187,172,476,-151,-218,-257,-804,-599
-722,-1117,-783,-446,-1109,-524,-256,-793,158,269,-274,-166,24,-301,11,309,-447,-230,-468,-950,-624
-847,-1265,-961,-583,-1199,-655,-387,-997,13,112,-403,-289,-152,-387,-85,211,-702,-350,-489,-1023,-620
-619,-985,-765,-352,-1089,-422,-109,-882,-32,15,-356,-247,-163,-338,-3,312,-606,-417,-308,-903,-595
-328,-626,-457,-31,-923,-119,237,-595,78,97,-198,-91,-7,-223,152,491,-283,-355,-153,-718,-583
-318,-638,-411,-26,-904,-123,215,-499,191,235,-135,-26,115,-194,182,513,-153,-252,-210,-677,-589
-607,-994,-699,-344,-1059,-436,-149,-737,167,243,-242,-126,35,-291,46,373,-394,-241,-422,-819,-608
-806,-1229,-930,-568,-1190,-640,-369,-981,32,115,-378,-249,-131,-385,-72,255,-683,-343,-509,-930,-612
-662,-1044,-812,-410,-1117,-487,-180,-924,-13,37,-348,-232,-150,-349,-9,314,-642,-402,-374,-854,-594
-384,-701,-520,-112,-958,-195,154,-652,78,102,-218,-107,-8,-253,130,460,-351,-355,-217,-675,-585
-329,-662,-430,-62,-914,-147,178,-510,200,243,-140,-39,119,-207,178,496,-174,-253,-245,-617,-591
-583,-971,-669,-343,-1037,-412,-145,-699,199,273,-228,-122,66,-276,66,356,-362,-223,-425,-741,-614
-794,-1220,-923,-575,-1171,-636,-385,-964,73,144,-355,-242,-103,-367,-62,219,-659,-313,-509,-871,-618
-679,-1067,-846,-461,-1128,-514,-233,-958,2,30,-350,-241,-150,-348,-20,253,-666,-389,-378,-817,-600
-383,-703,-547,-142,-968,-213,129,-690,79,77,-201,-107,-13,-239,132,415,-369,-348,-198,-642,-589
-297,-617,-413,-47,-903,-125,206,-511,212,228,-100,-18,137,-182,193,490,-148,-245,-206,-558,-598
-553,-940,-648,-330,-1031,-406,-123,-691,222,275,-195,-101,92,-268,68,344,-306,-210,-415,-678,-630
-821,-1259,-938,-613,-1183,-676,-434,-980,101,163,-346,-239,-85,-387,-95,192,-640,-289,-547,-832,-640
-759,-1171,-917,-546,-1167,-615,-338,-1027,-7,24,-370,-263,-170,-400,-99,198,-721,-389,-459,-821,-621
-457,-784,-609,-212,-1003,-296,43,-769,40,41,-233,-137,-62,-290,61,373,-452,-376,-261,-650,-600
-291,-589,-402,-26,-898,-124,225,-537,188,194,-103,-3,117,-193,181,507,-169,-271,-215,-533,-601
-470,-824,-547,-229,-978,-316,-16,-620,243,288,-145,-34,142,-223,118,427,-237,-196,-373,-620,-626
-765,-1170,-866,-542,-1145,-616,-360,-907,145,218,-300,-185,-6,-325,-31,270,-561,-243,-528,-809,-633
-790,-1195,-937,-569,-1177,-633,-356,-1014,21,85,-373,-267,-116,-356,-60,238,-717,-340,-476,-860,-613
-517,-857,-683,-275,-1027,-341,-22,-810,43,70,-267,-172,-44,-262,77,382,-501,-343,-275,-730,-595
-315,-625,-449,-60,-900,-136,207,-562,192,209,-128,-35,133,-151,219,518,-203,-234,-179,-617,-588
-432,-796,-538,-194,-945,-271,34,-591,267,323,-135,-36,189,-163,180,463,-205,-149,-310,-700,-604
-718,-1145,-837,-505,-1104,-562,-298,-860,193,278,-259,-156,68,-255,41,319,-504,-179,-477,-907,-608
-777,-1204,-937,-568,-1159,-613,-343,-998,65,136,-341,-227,-64,-303,-6,270,-682,-285,-455,-1006,-600
-542,-905,-706,-306,-1038,-363,-37,-835,50,75,-274,-156,-32,-247,94,384,-510,-330,-270,-919,-581
-320,-632,-448,-50,-907,-133,229,-573,166,187,-123,-13,120,-147,232,530,-213,-253,-160,-808,-580
-404,-750,-490,-133,-927,-219,109,-557,243,306,-111,3,179,-159,194,494,-180,-174,-267,-864,-601
-721,-1131,-806,-476,-1102,-548,-266,-839,182,270,-246,-119,59,-276,22,333,-483,-195,-476,-1065,-628
-844,-1280,-977,-612,-1194,-672,-388,-1039,47,123,-360,-228,-107,-359,-72,242,-728,-308,-500,-1182,-626
-621,-1012,-782,-378,-1093,-444,-118,-921,9,48,-301,-182,-97,-306,24,339,-615,-363,-336,-1092,-600
-333,-662,-478,-65,-934,-151,208,-622,131,154,-136,-30,74,-182,185,512,-278,-277,-187,-930,-582
-350,-702,-447,-87,-913,-178,154,-529,253,302,-77,10,193,-153,202,516,-135,-176,-262,-914,-599
-662,-1082,-754,-430,-1077,-512,-234,-774,230,327,-199,-93,125,-243,64,361,-382,-161,-474,-1077,-626
-832,-1289,-973,-630,-1192,-695,-425,-1015,89,191,-335,-234,-53,-334,-53,241,-666,-264,-525,-1199,-628
-663,-1076,-839,-443,-1111,-511,-206,-955,19,88,-319,-226,-91,-303,6,301,-628,-344,-359,-1125,-601
-355,-700,-518,-106,-937,-185,162,-663,109,154,-173,-86,50,-189,163,466,-321,-301,-163,-943,-585
-297,-646,-418,-44,-887,-126,200,-519,229,304,-95,-2,179,-137,228,514,-138,-198,-181,-879,-593
-569,-977,-669,-335,-1020,-410,-135,-707,234,347,-187,-83,136,-206,117,379,-332,-164,-380,-1020,-614
-794,-1242,-920,-575,-1158,-646,-390,-961,109,233,-326,-222,-32,-300,-20,239,-628,-253,-485,-1168,-612
-695,-1111,-855,-471,-1124,-535,-249,-951,14,114,-344,-247,-96,-305,1,257,-647,-345,-364,-1132,-593
-415,-761,-564,-156,-968,-239,105,-692,79,157,-200,-121,23,-202,145,421,-372,-304,-186,-967,-577
-322,-658,-433,-51,-896,-140,203,-523,204,298,-101,-18,169,-141,226,493,-162,-204,-186,-878,-585
-540,-934,-638,-291,-1006,-384,-83,-678,225,355,-161,-61,150,-192,139,392,-307,-158,-365,-990,-605
-791,-1231,-918,-552,-1157,-638,-354,-955,99,226,-315,-193,-33,-310,-17,261,-626,-259,-484,-1135,-607
-724,-1144,-893,-491,-1148,-563,-253,-992,-5,83,-344,-223,-123,-323,-16,283,-705,-361,-386,-1118,-591
-431,-776,-604,-165,-988,-255,118,-739,42,92,-214,-110,-22,-227,132,452,-432,-352,-203,-946,-568
-297,-626,-426,-10,-900,-115,262,-528,175,229,-95,-1,140,-157,222,563,-173,-244,-179,-835,-569
-512,-894,-602,-238,-996,-339,-10,-634,217,315,-153,-49,136,-219,127,462,-264,-183,-358,-926,-600
-813,-1254,-923,-571,-1169,-650,-363,-937,111,225,-316,-198,-34,-337,-33,302,-602,-250,-520,-1105,-612
-784,-1216,-939,-552,-1187,-620,-313,-1025,-12,65,-370,-248,-153,-364,-57,296,-728,-366,-438,-1123,-605
-476,-817,-635,-210,-1019,-290,81,-782,24,57,-245,-133,-56,-255,100,465,-460,-370,-222,-957,-580
-324,-643,-438,-43,-913,-138,250,-556,155,213,-123,-24,116,-181,199,565,-195,-268,-179,-841,-587
-528,-914,-617,-269,-1009,-358,-29,-676,184,301,-187,-78,107,-247,98,439,-299,-203,-352,-927,-618
-771,-1210,-890,-536,-1150,-616,-324,-944,93,203,-316,-192,-40,-342,-39,295,-591,-253,-482,-1072,-624
-739,-1159,-897,-505,-1155,-576,-269,-998,-5,66,-344,-234,-128,-353,-45,287,-668,-351,-407,-1056,-615
-455,-813,-621,-201,-1003,-284,70,-767,30,68,-236,-136,-49,-264,75,412,-424,-348,-220,-897,-601
-293,-620,-418,-18,-898,-107,253,-540,163,203,-116,-18,108,-183,175,521,-165,-253,-156,-778,-607
-460,-837,-552,-195,-968,-290,23,-616,217,291,-149,-38,132,-218,107,427,-214,-187,-311,-842,-628
-743,-1173,-856,-503,-1133,-582,-317,-887,136,222,-275,-169,-3,-312,-32,277,-516,-229,-472,-1000,-642
-759,-1193,-919,-529,-1164,-595,-320,-988,15,78,-344,-244,-123,-350,-71,234,-654,-343,-430,-1013,-631
-503,-872,-672,-250,-1038,-321,0,-795,27,68,-245,-161,-51,-272,54,367,-457,-351,-248,-844,-607
-305,-637,-437,-32,-909,-115,231,-546,163,207,-105,-24,126,-170,191,500,-166,-250,-160,-678,-603
-420,-800,-514,-158,-952,-249,63,-571,232,316,-122,-18,169,-183,156,450,-175,-172,-285,-702,-629
-720,-1164,-825,-486,-1121,-557,-289,-854,152,268,-274,-143,26,-290,3,293,-496,-216,-463,-854,-651
-800,-1242,-948,-566,-1184,-629,-353,-1020,3,121,-370,-239,-128,-352,-61,235,-703,-332,-449,-911,-644
-557,-932,-716,-295,-1059,-367,-37,-858,-10,72,-283,-165,-88,-280,44,367,-554,-364,-257,-787,-611
-309,-625,-431,-16,-907,-97,263,-564,111,186,-123,-19,90,-167,193,539,-222,-286,-127,-625,-604
-374,-727,-448,-92,-918,-177,150,-512,220,320,-98,13,177,-162,188,523,-140,-190,-234,-639,-622
-694,-1115,-763,-433,-1093,-507,-233,-778,161,304,-236,-110,65,-276,33,360,-418,-208,-443,-815,-647
-838,-1278,-953,-586,-1190,-652,-371,-996,26,156,-352,-226,-101,-353,-58,275,-687,-318,-473,-936,-654
-621,-1013,-768,-354,-1091,-423,-97,-894,-17,67,-292,-175,-104,-296,26,379,-601,-379,-286,-861,-637
-327,-643,-455,-28,-922,-118,260,-605,94,152,-123,-19,61,-171,191,569,-275,-306,-113,-726,-623
-300,-640,-392,-6,-887,-106,254,-497,209,292,-61,39,182,-138,224,586,-120,-197,-159,-731,-632
-585,-992,-668,-319,-1035,-414,-107,-720,195,307,-173,-64,112,-224,87,433,-354,-181,-366,-928,-651
-776,-1221,-901,-543,-1154,-620,-325,-958,74,184,-305,-191,-50,-310,-37,309,-634,-261,-441,-1090,-641
-649,-1054,-811,-407,-1100,-481,-164,-930,8,89,-287,-196,-82,-294,8,351,-604,-325,-313,-1061,-617
-372,-709,-519,-106,-937,-188,169,-664,100,154,-146,-67,61,-187,164,512,-308,-271,-154,-920,-599
-313,-655,-423,-42,-893,-139,207,-516,228,301,-64,15,193,-135,227,557,-129,-168,-175,-879,-610
-569,-966,-657,-314,-1011,-403,-105,-694,226,332,-159,-61,144,-203,114,422,-320,-145,-359,-1020,-641
-773,-1221,-899,-543,-1140,-622,-345,-946,98,203,-301,-191,-38,-299,-20,289,-621,-237,-452,-1171,-644
-667,-1078,-831,-441,-1093,-510,-199,-945,9,77,-313,-205,-103,-296,5,323,-647,-331,-330,-1156,-619
-375,-709,-530,-117,-930,-201,162,-684,74,111,-173,-78,20,-195,161,490,-364,-301,-149,-996,-594
-292,-624,-409,-18,-867,-114,246,-511,208,256,-79,19,172,-138,227,562,-143,-206,-163,-923,-601
-539,-933,-627,-291,-984,-383,-75,-672,219,320,-163,-54,138,-212,119,428,-290,-161,-355,-1049,-626
-800,-1252,-924,-579,-1137,-655,-380,-960,100,204,-330,-209,-45,-330,-49,269,-623,-247,-490,-1183,-639
-739,-1164,-906,-515,-1130,-590,-289,-1003,-8,55,-359,-245,-143,-345,-59,273,-702,-358,-394,-1060,-623
-435,-784,-600,-180,-967,-270,88,-749,33,57,-230,-133,-49,-248,90,428,-431,-350,-191,-670,-606
-267,-587,-394,0,-861,-94,276,-520,167,195,-98,-13,120,-170,199,537,-148,-257,-139,-228,-620
-447,-814,-533,-198,-938,-282,37,-593,212,272,-145,-42,127,-218,118,440,-217,-202,-300,70,-659
-751,-1171,-846,-521,-1106,-583,-311,-880,102,177,-310,-202,-46,-340,-56,267,-546,-272,-462,313,-684
-773,-1194,-909,-550,-1138,-599,-304,-986,-44,18,-394,-286,-189,-396,-118,224,-703,-397,-410,610,-670
-508,-865,-666,-259,-1003,-321,30,-796,-39,-9,-301,-200,-133,-323,0,359,-506,-415,-221,888,-641
-306,-628,-435,-32,-887,-112,263,-551,99,131,-156,-61,39,-229,133,502,-219,-319,-139,912,-629
-436,-799,-523,-164,-940,-253,86,-584,177,251,-164,-49,97,-243,92,457,-227,-231,-278,510,-639
-729,-1153,-820,-473,-1108,-565,-255,-867,114,208,-293,-169,-21,-331,-48,320,-527,-258,-453,-116,-647
-793,-1219,-929,-539,-1172,-630,-307,-1012,-4,67,-378,-248,-146,-381,-95,277,-699,-362,-441,-690,-625
-557,-914,-714,-282,-1052,-384,-15,-850,-9,29,-292,-166,-100,-308,21,399,-536,-389,-271,-987,-598
-333,-638,-456,-33,-921,-145,252,-588,109,144,-148,-33,68,-200,163,551,-234,-299,-157,-1142,-588
-415,-755,-486,-122,-935,-235,123,-568,192,270,-131,-15,133,-198,138,514,-199,-208,-254,-1349,-603
-719,-1121,-793,-457,-1100,-549,-248,-838,136,247,-267,-137,23,-293,-15,359,-488,-221,-438,-1612,-616
-840,-1258,-957,-585,-1186,-664,-376,-1030,0,102,-384,-247,-145,-368,-101,266,-730,-331,-462,-1743,-610
-615,-984,-763,-345,-1077,-434,-96,-899,-39,24,-322,-198,-131,-313,-6,358,-608,-386,-282,-1634,-579
-339,-646,-465,-45,-919,-145,225,-611,77,118,-161,-52,38,-203,154,521,-282,-320,-135,-1440,-568
-363,-693,-432,-67,-909,-181,162,-521,210,271,-102,1,163,-168,181,526,-145,-215,-213,-1399,-584
-660,-1059,-732,-398,-1068,-501,-209,-751,178,277,-230,-110,76,-270,26,368,-389,-218,-414,-1534,-616
-824,-1254,-947,-586,-1184,-677,-388,-989,31,131,-367,-243,-109,-357,-89,249,-682,-324,-470,-1631,-618
-653,-1029,-799,-400,-1097,-479,-161,-919,-34,30,-330,-218,-133,-320,-21,325,-636,-387,-299,-1533,-588
-357,-660,-489,-78,-940,-166,202,-641,50,82,-187,-77,9,-219,134,497,-330,-342,-117,-1332,-571
-313,-623,-405,-31,-896,-129,230,-504,168,220,-113,4,138,-170,186,544,-153,-241,-144,-1256,-582
-581,-961,-660,-324,-1032,-412,-103,-702,160,251,-211,-82,77,-253,60,403,-355,-216,-336,-1375,-609
-798,-1216,-913,-560,-1167,-639,-348,-957,39,128,-349,-222,-89,-351,-75,271,-651,-301,-443,-1478,-620
-688,-1069,-836,-438,-1126,-518,-188,-937,-38,25,-349,-235,-136,-343,-39,306,-646,-380,-327,-1396,-611
-401,-719,-547,-128,-967,-217,162,-676,33,75,-214,-116,-8,-243,107,466,-357,-342,-145,-1192,-602
-313,-627,-415,-33,-898,-127,244,-509,168,218,-118,-17,141,-181,175,531,-145,-237,-140,-1085,-602
-545,-914,-624,-284,-1002,-376,-54,-660,182,272,-195,-83,101,-243,70,405,-301,-198,-314,-1169,-622
-779,-1193,-885,-532,-1146,-620,-323,-926,73,161,-330,-212,-64,-334,-67,269,-616,-271,-420,-1291,-625
-696,-1088,-853,-452,-1124,-538,-213,-951,-25,32,-353,-233,-141,-337,-51,292,-675,-366,-309,-1256,-603
-401,-720,-554,-130,-963,-233,144,-697,27,58,-213,-112,-22,-227,99,453,-395,-337,-126,-1072,-579
-281,-580,-387,2,-877,-103,267,-493,165,209,-95,0,145,-155,188,546,-144,-229,-109,-943,-587
-498,-852,-559,-238,-973,-333,-15,-604,203,296,-146,-49,151,-213,103,440,-245,-163,-285,-1024,-618
-792,-1201,-878,-550,-1149,-633,-356,-904,102,207,-297,-187,-13,-319,-46,292,-582,-221,-435,-1178,-638
-778,-1188,-910,-541,-1167,-620,-322,-996,-14,54,-349,-231,-123,-349,-66,282,-704,-331,-372,-1187,-628
-487,-824,-635,-221,-1017,-315,35,-780,0,17,-247,-138,-61,-261,73,427,-474,-357,-173,-1013,-604
-274,-570,-393,10,-895,-97,274,-523,135,146,-97,6,118,-159,211,569,-175,-260,-92,-858,-597
-410,-746,-481,-135,-940,-235,91,-552,201,249,-113,2,169,-186,155,507,-189,-187,-228,-898,-613
-722,-1121,-795,-460,-1105,-553,-264,-832,130,198,-255,-131,37,-290,1,351,-503,-216,-410,-1058,-632
-794,-1197,-908,-539,-1162,-623,-323,-986,-12,54,-359,-228,-117,-361,-73,285,-693,-331,-398,-1092,-627
-559,-895,-693,-294,-1047,-378,-28,-831,-27,20,-275,-159,-81,-295,45,404,-549,-357,-226,-933,-605
-327,-625,-444,-39,-913,-132,238,-573,86,140,-131,-31,80,-196,184,545,-253,-273,-123,-763,-596
-406,-735,-479,-131,-930,-224,112,-558,179,270,-119,-11,157,-194,168,511,-206,-183,-234,-760,-612
-684,-1083,-766,-443,-1084,-522,-233,-809,138,248,-241,-120,51,-282,25,369,-470,-198,-409,-908,-625
-779,-1187,-905,-554,-1156,-621,-333,-989,11,101,-344,-217,-103,-355,-50,283,-686,-311,-416,-973,-622
-560,-903,-709,-315,-1049,-392,-58,-853,-16,32,-283,-167,-90,-304,32,378,-568,-367,-250,-852,-592
-305,-598,-433,-39,-903,-130,238,-586,91,127,-139,-44,64,-210,160,517,-263,-294,-123,-675,-581
-338,-653,-417,-75,-892,-178,169,-528,197,262,-98,-5,156,-199,159,513,-165,-190,-207,-648,-594
-638,-1020,-715,-405,-1054,-497,-200,-778,152,258,-229,-113,57,-303,13,361,-427,-199,-405,-788,-621
-794,-1212,-923,-583,-1165,-675,-376,-1012,16,119,-354,-225,-115,-381,-101,255,-709,-301,-457,-886,-626
-609,-976,-766,-379,-1078,-472,-135,-923,-42,29,-319,-203,-139,-345,-33,324,-644,-376,-293,-794,-604
-310,-611,-449,-50,-907,-150,237,-628,45,94,-174,-70,3,-248,116,492,-320,-329,-111,-605,-593
-271,-573,-365,-11,-861,-110,254,-489,173,244,-101,0,140,-198,167,525,-131,-226,-149,-547,-602
-549,-912,-621,-315,-1003,-409,-98,-685,174,289,-206,-93,94,-282,39,383,-322,-199,-354,-683,-620
-761,-1179,-883,-557,-1133,-635,-347,-952,38,166,-353,-234,-90,-380,-98,250,-642,-291,-437,-827,-620
-619,-999,-782,-405,-1081,-477,-161,-934,-42,44,-340,-227,-142,-356,-50,308,-651,-374,-287,-768,-601
-319,-623,-467,-81,-908,-158,206,-633,51,104,-188,-91,7,-242,113,492,-320,-324,-110,-588,-584
-300,-619,-402,-64,-875,-144,197,-506,185,268,-111,-23,149,-200,168,526,-126,-211,-171,-546,-605
-562,-956,-662,-358,-1000,-429,-135,-719,160,284,-224,-119,70,-292,36,376,-348,-198,-362,-697,-635
-723,-1152,-874,-540,-1115,-599,-317,-951,36,156,-337,-229,-89,-362,-60,287,-635,-278,-414,-822,-637
-571,-959,-750,-382,-1041,-440,-120,-893,-28,64,-319,-222,-116,-338,-5,341,-576,-354,-278,-755,-609
-301,-631,-466,-85,-892,-153,206,-623,54,131,-195,-101,20,-238,140,491,-276,-306,-130,-579,-592
-248,-589,-380,-27,-844,-106,243,-490,174,274,-116,-23,145,-191,197,541,-103,-207,-158,-528,-598
-496,-895,-614,-286,-969,-363,-61,-671,172,313,-201,-98,98,-250,89,414,-290,-179,-334,-666,-625
-704,-1140,-858,-509,-1098,-571,-289,-920,45,188,-339,-222,-77,-340,-42,279,-589,-271,-418,-824,-628
-593,-991,-782,-387,-1057,-442,-137,-913,-41,67,-345,-229,-138,-334,-12,313,-608,-360,-287,-812,-607
-314,-642,-487,-72,-897,-147,220,-646,26,104,-208,-108,-15,-238,131,466,-322,-328,-113,-677,-590
-229,-550,-354,27,-830,-59,297,-465,161,258,-114,-17,134,-185,198,525,-97,-225,-130,-633,-602
-476,-860,-571,-238,-948,-323,-19,-615,182,329,-187,-86,110,-249,84,389,-233,-172,-326,-789,-633
-750,-1183,-866,-534,-1111,-599,-343,-908,62,215,-348,-240,-78,-368,-86,222,-567,-253,-464,-992,-644
-691,-1109,-862,-483,-1103,-542,-261,-961,-48,78,-381,-278,-168,-380,-88,220,-643,-348,-370,-1017,-623
-383,-733,-563,-147,-944,-224,117,-716,-1,85,-249,-158,-64,-280,67,381,-375,-343,-172,-880,-600
-206,-526,-346,50,-833,-48,308,-483,138,219,-119,-28,116,-193,180,493,-87,-244,-121,-776,-596
-375,-742,-483,-137,-911,-235,77,-562,194,310,-144,-46,139,-228,110,410,-148,-176,-285,-866,-618
-680,-1095,-802,-466,-1084,-548,-273,-847,90,227,-297,-199,-27,-342,-60,247,-467,-239,-460,-1056,-633
-706,-1127,-876,-499,-1119,-573,-277,-964,-44,71,-381,-280,-166,-398,-110,210,-632,-361,-421,-1115,-619
-437,-803,-622,-202,-979,-285,68,-767,-38,37,-298,-199,-109,-332,2,345,-433,-383,-226,-986,-598
-229,-553,-373,34,-848,-64,314,-510,98,166,-154,-59,59,-230,141,497,-140,-296,-135,-858,-597
-353,-715,-452,-99,-896,-194,145,-529,166,264,-165,-67,103,-252,100,445,-143,-223,-268,-911,-619
-651,-1069,-760,-416,-1060,-499,-203,-809,83,203,-303,-192,-40,-361,-43,303,-448,-262,-450,-1076,-631
-713,-1131,-863,-482,-1119,-553,-251,-951,-41,52,-384,-273,-170,-409,-91,265,-624,-364,-430,-1135,-621
-477,-830,-640,-229,-998,-300,54,-788,-51,4,-304,-200,-126,-340,16,395,-462,-401,-246,-1002,-601
-246,-557,-385,22,-862,-58,323,-521,63,116,-173,-72,32,-248,152,542,-164,-323,-132,-854,-595
-330,-683,-429,-65,-880,-157,190,-508,154,244,-156,-52,108,-248,135,517,-123,-229,-237,-873,-613
-632,-1061,-747,-405,-1046,-480,-185,-782,101,223,-298,-172,-3,-342,-14,359,-409,-238,-428,-1043,-632
-763,-1208,-922,-556,-1143,-618,-322,-989,-24,82,-401,-275,-150,-405,-95,270,-659,-337,-453,-1143,-624
-534,-929,-728,-322,-1030,-380,-42,-863,-51,18,-335,-220,-131,-336,7,369,-535,-387,-272,-1028,-599
-251,-589,-425,-22,-866,-87,283,-558,70,128,-174,-76,34,-221,162,529,-189,-310,-122,-850,-592
-282,-648,-407,-51,-851,-127,216,-485,175,271,-132,-35,136,-206,169,515,-77,-207,-194,-840,-615
-566,-1005,-688,-362,-1000,-428,-135,-725,140,268,-260,-141,41,-308,23,353,-338,-210,-374,-1000,-648
-720,-1187,-882,-530,-1111,-590,-303,-940,5,133,-379,-261,-118,-376,-79,243,-604,-311,-423,-1109,-650
-549,-961,-726,-335,-1028,-397,-73,-855,-33,64,-328,-227,-113,-326,-5,320,-528,-362,-274,-1020,-622
-262,-607,-423,-18,-866,-97,276,-577,68,137,-173,-75,34,-218,148,476,-215,-302,-105,-839,-602
-249,-603,-365,8,-840,-81,270,-478,184,272,-103,-8,155,-174,193,501,-74,-198,-153,-801,-609
-546,-968,-653,-311,-993,-397,-93,-712,156,282,-213,-109,81,-275,48,346,-316,-192,-368,-955,-627
-759,-1208,-892,-539,-1128,-614,-318,-962,33,154,-360,-236,-84,-366,-82,232,-613,-286,-456,-1084,-629
-632,-1037,-787,-394,-1076,-473,-135,-926,-31,57,-346,-226,-124,-343,-35,287,-591,-361,-331,-1023,-609
-351,-691,-498,-85,-925,-181,217,-654,42,116,-206,-97,11,-241,110,451,-300,-315,-171,-850,-595
-294,-637,-407,-21,-878,-130,257,-519,155,255,-122,-18,136,-196,173,514,-120,-223,-194,-786,-602
-559,-960,-647,-304,-1009,-402,-65,-708,150,292,-214,-82,85,-266,64,394,-321,-199,-380,-905,-625
-767,-1207,-891,-533,-1143,-619,-307,-967,19,168,-353,-206,-91,-357,-65,278,-628,-299,-466,-1042,-625
-664,-1073,-830,-429,-1114,-505,-163,-967,-70,44,-359,-220,-152,-346,-29,317,-658,-386,-343,-1000,-601
-380,-707,-539,-117,-957,-206,186,-701,-3,79,-220,-101,-27,-243,126,491,-375,-354,-161,-822,-579
-290,-609,-401,-11,-883,-105,280,-515,129,232,-112,-1,131,-184,209,582,-145,-248,-161,-725,-583
-517,-898,-595,-261,-985,-351,-18,-653,145,298,-180,-61,110,-247,99,467,-268,-199,-338,-835,-606
-792,-1225,-894,-557,-1146,-637,-340,-945,35,193,-338,-202,-66,-359,-61,313,-603,-275,-474,-999,-623
-751,-1167,-895,-509,-1145,-592,-272,-1008,-69,54,-375,-240,-163,-373,-64,314,-700,-379,-394,-977,-610
-451,-792,-602,-186,-992,-278,97,-772,-30,45,-246,-131,-71,-276,82,474,-453,-379,-190,-790,-595
-273,-578,-390,17,-885,-91,289,-534,109,175,-123,-4,102,-195,196,594,-165,-288,-127,-634,-595
-434,-796,-517,-164,-962,-267,66,-598,167,267,-150,-26,127,-234,134,507,-211,-218,-278,-680,-623
-736,-1148,-833,-489,-1130,-580,-283,-882,78,199,-301,-178,-21,-340,-29,331,-529,-268,-443,-834,-640
-767,-1189,-915,-532,-1168,-610,-306,-1003,-60,59,-392,-270,-156,-394,-87,265,-694,-384,-398,-872,-632
-503,-868,-666,-247,-1037,-326,27,-814,-46,42,-295,-192,-96,-308,41,384,-496,-394,-196,-739,-611
-287,-610,-414,-9,-908,-100,279,-550,85,172,-158,-60,73,-205,172,515,-204,-303,-95,-606,-608
-397,-757,-479,-127,-949,-215,125,-556,167,289,-155,-56,128,-218,132,460,-194,-219,-214,-662,-624
-691,-1107,-782,-446,-1111,-519,-219,-825,96,235,-290,-180,3,-321,-27,301,-487,-253,-385,-853,-639
-773,-1189,-904,-533,-1173,-596,-292,-986,-31,80,-377,-269,-130,-386,-87,232,-672,-358,-376,-940,-635
-542,-892,-688,-287,-1061,-356,-4,-837,-48,17,-292,-199,-98,-328,10,343,-522,-396,-198,-843,-608
-299,-605,-426,-25,-927,-114,265,-577,64,118,-154,-75,52,-238,137,479,-224,-325,-85,-731,-594
-374,-709,-460,-105,-945,-209,132,-553,166,250,-132,-42,130,-237,116,454,-172,-235,-200,-789,-610
-687,-1089,-780,-447,-1118,-544,-250,-833,106,218,-274,-169,5,-351,-50,285,-459,-259,-396,-994,-631
-820,-1246,-954,-592,-1208,-681,-397,-1041,-26,66,-390,-282,-164,-428,-148,196,-698,-362,-430,-1128,-620
-626,-990,-783,-379,-1114,-469,-141,-940,-74,-20,-345,-241,-164,-382,-65,293,-604,-422,-264,-1060,-592
-336,-636,-472,-58,-944,-167,206,-644,38,69,-189,-96,-8,-268,100,467,-282,-358,-101,-915,-577
-335,-651,-422,-56,-917,-173,182,-530,162,225,-121,-29,127,-223,143,500,-132,-247,-166,-913,-597
-629,-1014,-705,-374,-1064,-478,-176,-752,143,248,-243,-137,51,-311,8,351,-363,-232,-373,-1089,-626
-808,-1235,-929,-581,-1183,-672,-381,-991,0,115,-381,-265,-132,-405,-107,236,-651,-332,-433,-1234,-630
-651,-1033,-803,-411,-1106,-500,-174,-943,-68,5,-365,-256,-175,-381,-57,303,-622,-411,-277,-1171,-605
-350,-666,-492,-82,-941,-181,199,-665,14,65,-213,-113,-35,-272,105,486,-329,-369,-85,-996,-592
-286,-608,-390,-5,-889,-119,258,-516,140,213,-121,-24,106,-216,176,551,-141,-267,-110,-923,-595
-557,-940,-640,-295,-1029,-401,-76,-713,139,248,-213,-100,60,-297,56,419,-331,-240,-318,-1014,-621
-791,-1219,-906,-542,-1169,-640,-337,-974,17,128,-360,-233,-116,-402,-83,273,-635,-331,-427,-1042,-630
-700,-1103,-848,-454,-1140,-546,-211,-974,-76,5,-377,-259,-187,-411,-74,291,-665,-426,-323,-794,-615
-413,-753,-559,-140,-977,-236,141,-712,-25,38,-258,-151,-79,-321,55,436,-386,-408,-134,-304,-612
-297,-636,-411,-27,-896,-122,243,-523,100,180,-160,-54,67,-267,117,496,-159,-303,-122,154,-626
-506,-911,-604,-268,-996,-350,-38,-656,108,238,-238,-129,39,-329,15,367,-283,-252,-288,465,-657
-752,-1204,-883,-541,-1139,-603,-325,-927,-2,138,-382,-263,-120,-422,-131,224,-598,-320,-395,628,-670
-692,-1124,-867,-481,-1117,-537,-225,-969,-98,18,-417,-291,-191,-425,-121,235,-671,-401,-282,739,-652
-409,-767,-583,-165,-961,-222,141,-718,-45,40,-286,-169,-82,-322,36,396,-407,-382,-91,745,-622
-275,-604,-398,5,-873,-71,304,-498,96,203,-153,-55,99,-230,156,511,-141,-269,-59,470,-609
-469,-852,-546,-194,-964,-273,57,-583,161,325,-187,-78,128,-260,88,433,-221,-192,-226,-81,-620
-776,-1215,-870,-517,-1145,-588,-290,-882,71,260,-328,-216,-13,-359,-59,281,-560,-238,-396,-740,-620
-780,-1216,-925,-532,-1173,-594,-278,-991,-53,108,-388,-268,-135,-391,-78,270,-708,-351,-345,-1175,-598
-505,-865,-651,-221,-1034,-297,65,-793,-42,74,-275,-164,-71,-292,69,424,-500,-373,-157,-1314,-570
-291,-595,-394,29,-903,-71,315,-528,92,197,-118,-21,94,-185,208,572,-198,-286,-69,-1340,-570
-414,-755,-470,-98,-949,-206,140,-554,172,302,-126,-11,145,-206,165,529,-199,-213,-208,-1459,-589
-719,-1127,-784,-428,-1125,-531,-223,-842,93,239,-279,-143,3,-328,4,365,-510,-261,-399,-1651,-609
-811,-1227,-915,-526,-1194,-622,-303,-1013,-47,83,-391,-250,-159,-406,-82,291,-725,-382,-410,-1725,-604
-591,-946,-707,-281,-1087,-387,-22,-867,-62,33,-313,-190,-134,-349,14,403,-586,-412,-254,-1590,-585
-360,-660,-444,-23,-946,-140,253,-602,54,137,-177,-66,16,-255,143,548,-281,-336,-139,-1417,-579
-422,-761,-470,-96,-958,-220,148,-568,149,265,-155,-42,105,-252,132,534,-223,-250,-247,-1400,-599
-707,-1109,-767,-405,-1112,-520,-199,-820,98,231,-297,-162,-3,-347,-9,384,-489,-268,-426,-1539,-617
-811,-1232,-923,-535,-1194,-632,-314,-1006,-22,93,-397,-259,-146,-402,-78,313,-713,-362,-446,-1598,-613
-597,-973,-742,-313,-1088,-411,-52,-886,-49,30,-336,-221,-134,-339,10,403,-597,-412,-283,-1472,-585
-332,-649,-461,-31,-935,-142,260,-611,62,129,-189,-90,27,-235,158,547,-278,-337,-147,-1284,-573
-354,-703,-446,-68,-925,-178,197,-533,163,271,-146,-43,134,-216,160,538,-168,-238,-218,-1246,-580
-658,-1075,-741,-405,-1082,-495,-181,-777,130,278,-275,-150,41,-313,10,379,-423,-226,-422,-1380,-605
-826,-1277,-963,-602,-1196,-682,-388,-1014,-5,142,-412,-274,-134,-401,-109,255,-706,-330,-477,-1479,-602
-656,-1055,-824,-414,-1118,-494,-169,-944,-59,51,-370,-244,-154,-367,-40,322,-651,-393,-321,-1377,-576
-348,-674,-504,-80,-945,-172,203,-649,29,119,-213,-99,-4,-259,109,492,-327,-338,-146,-1173,-559
-292,-620,-394,-17,-893,-116,240,-489,162,272,-126,-19,135,-213,161,533,-126,-234,-176,-1101,-575
-562,-943,-640,-307,-1032,-399,-99,-680,172,312,-222,-100,97,-293,30,393,-306,-200,-372,-1222,-607
-784,-1220,-901,-552,-1166,-638,-357,-940,50,194,-367,-236,-75,-388,-109,248,-615,-282,-475,-1339,-615
-684,-1090,-837,-447,-1123,-524,-212,-947,-41,73,-376,-248,-149,-381,-82,275,-650,-370,-347,-1280,-601
-385,-719,-538,-121,-961,-211,158,-681,19,107,-229,-129,-29,-271,80,446,-371,-339,-155,-1085,-580
-267,-602,-386,6,-877,-88,277,-492,141,240,-127,-29,115,-208,164,529,-133,-241,-133,-965,-588
-493,-882,-589,-244,-981,-325,-11,-633,168,316,-188,-83,113,-248,81,424,-252,-177,-303,-1055,-610
-759,-1195,-877,-526,-1138,-600,-314,-904,59,223,-332,-217,-40,-341,-52,286,-572,-249,-432,-1193,-618
-712,-1138,-874,-481,-1129,-544,-233,-945,-43,99,-374,-264,-125,-355,-53,286,-651,-347,-339,-1183,-606
-431,-786,-593,-169,-972,-244,124,-705,-3,114,-256,-160,-32,-258,92,440,-400,-337,-146,-1013,-589
-277,-617,-402,6,-870,-82,283,-488,118,248,-148,-51,116,-182,193,546,-152,-247,-102,-883,-585
-465,-846,-553,-192,-956,-273,42,-583,160,343,-184,-75,127,-223,123,466,-242,-176,-245,-951,-611
-751,-1182,-849,-498,-1121,-567,-288,-877,51,252,-331,-208,-32,-321,-31,323,-574,-240,-390,-1106,-625
-754,-1184,-895,-506,-1142,-561,-267,-980,-77,94,-401,-271,-166,-367,-59,305,-720,-355,-330,-1111,-613
-490,-847,-632,-211,-999,-275,75,-775,-54,74,-295,-166,-94,-273,81,457,-497,-366,-139,-936,-593
-294,-604,-405,7,-880,-70,308,-511,85,212,-142,-36,87,-178,213,589,-187,-265,-57,-773,-586
-439,-794,-511,-148,-938,-236,114,-541,158,333,-154,-48,142,-204,154,522,-193,-188,-202,-804,-606
-736,-1162,-823,-482,-1106,-557,-252,-825,85,283,-302,-180,0,-318,-9,345,-495,-228,-384,-954,-628
-791,-1231,-928,-552,-1158,-623,-313,-981,-32,127,-392,-265,-147,-369,-71,284,-697,-342,-357,-1001,-625
-523,-902,-683,-268,-1016,-342,10,-815,-46,64,-310,-185,-114,-303,40,402,-521,-378,-145,-863,-603
-259,-578,-395,20,-865,-70,316,-527,77,174,-141,-40,66,-188,192,557,-194,-291,-2,-677,-592
-318,-668,-419,-47,-877,-134,208,-481,165,303,-115,-18,149,-187,179,523,-123,-198,-101,-669,-609
-626,-1043,-728,-384,-1050,-462,-173,-745,114,280,-249,-137,35,-287,26,352,-411,-207,-298,-825,-637
-769,-1204,-900,-535,-1147,-608,-322,-946,-13,139,-373,-249,-123,-367,-70,254,-663,-317,-336,-911,-640
-585,-959,-730,-328,-1047,-399,-74,-841,-62,57,-337,-222,-138,-340,-7,326,-569,-385,-174,-797,-625
-326,-639,-443,-34,-899,-123,238,-572,31,134,-196,-93,2,-244,122,477,-268,-331,-24,-624,-613
-319,-644,-390,-21,-878,-118,218,-474,144,265,-129,-29,120,-207,155,492,-144,-235,-80,-591,-621
-609,-1001,-669,-336,-1031,-421,-136,-702,120,267,-246,-129,44,-290,18,349,-379,-233,-285,-734,-638
-816,-1251,-911,-563,-1153,-624,-359,-953,-34,137,-408,-288,-147,-409,-123,205,-688,-339,-364,-854,-645
-600,-989,-744,-337,-1058,-404,-87,-869,-101,42,-378,-263,-185,-383,-55,289,-627,-405,-178,-762,-620
-274,-607,-406,10,-879,-74,293,-544,28,131,-203,-101,0,-247,128,483,-252,-338,-12,-576,-606
-375,-739,-461,-96,-918,-185,154,-517,146,267,-180,-76,111,-237,124,459,-178,-245,-146,-579,-624
-719,-1161,-811,-467,-1100,-541,-244,-837,56,211,-341,-230,-42,-358,-58,273,-522,-288,-347,-771,-647
-774,-1215,-915,-531,-1150,-590,-278,-997,-94,47,-428,-314,-205,-417,-121,223,-745,-408,-312,-835,-632
-504,-870,-656,-231,-1017,-303,64,-813,-96,4,-331,-222,-151,-333,8,367,-546,-438,-120,-702,-598
-270,-585,-395,22,-879,-64,322,-530,42,129,-181,-80,33,-231,157,518,-212,-347,-29,-562,-593
-382,-747,-469,-105,-930,-196,151,-530,138,264,-176,-70,116,-232,135,473,-174,-251,-175,-610,-614
-691,-1126,-789,-457,-1098,-530,-237,-807,85,240,-315,-192,-3,-342,-22,309,-463,-261,-377,-811,-636
-802,-1246,-945,-576,-1179,-641,-352,-1007,-58,80,-426,-299,-168,-418,-110,228,-703,-376,-389,-918,-633
-561,-942,-738,-329,-1067,-393,-59,-885,-91,2,-359,-233,-158,-353,-17,340,-585,-432,-198,-833,-607
-282,-617,-445,-27,-910,-118,256,-588,30,111,-199,-87,11,-242,140,501,-253,-352,-51,-706,-598
-316,-683,-442,-72,-901,-165,172,-520,145,265,-150,-53,121,-210,143,489,-152,-249,-141,-739,-615
-616,-1041,-731,-399,-1055,-478,-191,-779,111,257,-268,-158,27,-308,-8,333,-413,-242,-328,-937,-637
-747,-1202,-911,-552,-1138,-619,-337,-978,-11,120,-383,-270,-125,-379,-103,238,-659,-337,-368,-1074,-636
-567,-982,-757,-356,-1055,-433,-108,-882,-59,48,-346,-242,-125,-343,-37,318,-578,-387,-214,-1018,-610
-296,-658,-473,-57,-904,-154,213,-607,37,136,-202,-110,19,-239,107,472,-274,-318,-64,-887,-594
-304,-679,-434,-54,-890,-158,176,-517,144,269,-147,-55,128,-215,131,492,-151,-220,-129,-883,-601
-580,-1006,-701,-357,-1034,-446,-168,-736,117,273,-255,-144,41,-300,3,353,-382,-215,-320,-1050,-625
-751,-1201,-906,-543,-1146,-618,-347,-965,-15,135,-380,-264,-120,-379,-117,248,-663,-320,-382,-1182,-621
-604,-1001,-785,-376,-1082,-450,-139,-908,-77,40,-359,-253,-150,-343,-53,315,-626,-391,-240,-1116,-599
-328,-659,-495,-72,-919,-153,202,-631,15,112,-219,-124,-5,-241,88,480,-330,-340,-79,-951,-589
-291,-638,-415,-31,-881,-113,229,-495,137,262,-149,-56,125,-202,146,515,-159,-235,-124,-908,-596
-575,-984,-668,-328,-1021,-404,-118,-696,139,305,-242,-143,79,-278,20,371,-354,-202,-321,-1048,-622
-805,-1260,-935,-582,-1165,-643,-386,-971,10,177,-383,-275,-100,-383,-124,228,-670,-297,-430,-1203,-624
-696,-1129,-880,-474,-1128,-537,-247,-978,-78,56,-387,-283,-163,-374,-83,268,-691,-384,-308,-1170,-603
-380,-732,-568,-129,-965,-208,142,-703,-1,91,-241,-144,-34,-254,93,450,-398,-353,-111,-1001,-583
-256,-598,-404,12,-883,-79,270,-501,140,237,-120,-29,132,-170,187,550,-148,-249,-91,-896,-586
-474,-872,-586,-219,-986,-312,-8,-622,176,303,-177,-78,131,-217,97,445,-251,-189,-263,-997,-613
-758,-1212,-894,-520,-1155,-599,-330,-915,54,195,-337,-229,-42,-337,-61,281,-578,-274,-407,-1155,-630
-730,-1174,-919,-496,-1164,-573,-277,-989,-59,58,-378,-280,-148,-362,-70,282,-690,-372,-329,-1154,-624
-443,-820,-644,-185,-1015,-275,79,-764,-33,53,-271,-184,-78,-278,59,424,-450,-379,-138,-990,-610
-280,-631,-443,-4,-908,-103,258,-543,94,187,-144,-58,82,-197,168,545,-192,-285,-85,-860,-606
-462,-859,-590,-197,-993,-293,21,-629,141,274,-176,-81,107,-237,99,465,-268,-218,-242,-919,-630
-744,-1187,-883,-496,-1157,-584,-304,-900,57,205,-316,-214,-42,-332,-46,325,-576,-266,-399,-1080,-642
-754,-1190,-935,-516,-1183,-590,-284,-997,-63,63,-384,-288,-158,-372,-81,295,-709,-383,-352,-1108,-624
-498,-859,-683,-237,-1050,-316,33,-803,-41,52,-279,-193,-91,-296,45,427,-502,-389,-173,-974,-595
-294,-616,-440,-14,-917,-107,269,-548,87,183,-149,-66,77,-206,164,549,-208,-296,-80,-859,-590
-415,-783,-522,-144,-965,-246,93,-572,160,295,-164,-68,120,-214,117,492,-221,-215,-211,-915,-606
-710,-1141,-820,-464,-1130,-553,-256,-848,75,249,-308,-196,-16,-323,-35,338,-526,-244,-375,-1084,-623
-775,-1214,-940,-548,-1192,-622,-326,-1008,-55,96,-404,-292,-161,-380,-100,272,-735,-349,-370,-1131,-617
-526,-902,-715,-282,-1064,-369,-23,-850,-60,58,-320,-220,-119,-308,10,394,-562,-378,-183,-989,-591
-280,-598,-441,-14,-915,-116,262,-566,75,178,-169,-77,56,-205,159,536,-224,-287,-71,-814,-583
-358,-722,-477,-106,-933,-211,130,-527,181,323,-150,-60,152,-201,137,489,-151,-181,-195,-825,-605
-669,-1094,-779,-445,-1092,-532,-237,-784,142,309,-282,-178,51,-297,-25,318,-427,-184,-387,-992,-630
-793,-1239,-948,-581,-1170,-655,-362,-983,14,159,-394,-288,-111,-374,-121,231,-675,-287,-408,-1089,-624
-577,-966,-760,-349,-1066,-423,-89,-880,-42,67,-348,-245,-128,-333,-33,323,-575,-354,-234,-994,-593
-291,-616,-461,-30,-909,-126,253,-596,60,138,-197,-99,19,-228,128,498,-265,-295,-76,-828,-574
-297,-630,-410,-22,-889,-119,239,-495,171,272,-135,-37,138,-195,150,525,-143,-204,-129,-804,-593
-595,-985,-690,-333,-1039,-417,-109,-716,148,283,-242,-126,58,-283,17,385,-391,-202,-329,-941,-627
-789,-1218,-915,-541,-1160,-611,-309,-951,12,152,-372,-246,-109,-371,-92,269,-675,-310,-406,-1039,-637
-652,-1037,-804,-383,-1100,-452,-122,-899,-62,58,-349,-237,-145,-349,-33,330,-639,-385,-272,-941,-614
-381,-699,-514,-88,-944,-153,217,-637,17,116,-208,-110,-6,-247,124,486,-346,-345,-107,-748,-596
-336,-662,-426,-32,-901,-110,249,-503,128,249,-130,-35,110,-212,171,532,-180,-258,-140,-671,-606
-591,-985,-666,-312,-1042,-377,-77,-696,113,279,-223,-114,53,-279,61,408,-377,-236,-320,-778,-637
-794,-1229,-907,-529,-1183,-593,-307,-945,-25,141,-363,-244,-132,-378,-70,282,-680,-343,-407,-898,-635
-679,-1081,-835,-417,-1141,-473,-149,-937,-112,17,-379,-251,-186,-366,-29,325,-688,-433,-277,-847,-611
-395,-729,-551,-106,-984,-186,202,-679,-37,62,-246,-124,-58,-261,120,497,-409,-399,-102,-679,-589
-307,-641,-425,-10,-917,-100,282,-504,90,214,-156,-33,85,-210,194,564,-190,-298,-109,-608,-598
-538,-939,-633,-268,-1035,-359,-25,-659,104,272,-244,-113,49,-290,74,426,-336,-259,-299,-745,-614
-799,-1244,-918,-552,-1190,-626,-333,-953,-22,159,-395,-259,-124,-403,-89,270,-659,-339,-437,-936,-621
-739,-1165,-901,-497,-1186,-571,-254,-1001,-119,18,-431,-303,-212,-423,-98,272,-734,-440,-347,-963,-605
-428,-777,-602,-175,-1017,-257,116,-751,-76,21,-306,-194,-117,-321,47,425,-454,-430,-148,-850,-583
-254,-582,-390,7,-898,-85,296,-522,69,160,-178,-66,60,-237,149,537,-174,-321,-100,-772,-581
-421,-800,-530,-184,-969,-275,62,-596,127,263,-207,-85,91,-276,81,447,-230,-243,-262,-882,-600
-710,-1141,-843,-504,-1129,-577,-287,-878,22,186,-356,-233,-63,-388,-92,277,-538,-296,-421,-1068,-612
-719,-1160,-909,-538,-1155,-598,-306,-989,-100,50,-433,-312,-193,-435,-148,229,-688,-398,-376,-1139,-607
-447,-831,-654,-253,-1006,-313,20,-794,-80,30,-338,-229,-126,-357,-36,351,-474,-412,-183,-1028,-595
-244,-589,-421,-34,-878,-114,250,-542,55,156,-199,-103,39,-268,85,469,-180,-318,-99,-911,-590
-361,-745,-501,-158,-917,-250,78,-562,136,272,-202,-93,92,-284,48,417,-183,-237,-227,-979,-609
-649,-1101,-805,-469,-1080,-550,-264,-836,59,214,-339,-220,-43,-388,-106,263,-482,-283,-406,-1153,-630
-711,-1163,-910,-533,-1135,-605,-316,-976,-61,58,-423,-303,-177,-439,-165,212,-663,-395,-394,-1216,-622
-484,-870,-687,-280,-1021,-350,-20,-821,-71,5,-345,-239,-145,-377,-58,327,-492,-430,-229,-1096,-599
-260,-597,-432,-27,-887,-111,252,-563,28,109,-209,-119,2,-288,67,454,-198,-361,-113,-936,-594
-353,-725,-483,-116,-918,-209,128,-549,108,229,-203,-105,68,-296,49,421,-176,-279,-230,-908,-615
-662,-1095,-790,-446,-1085,-531,-241,-818,51,200,-336,-224,-45,-391,-102,264,-476,-298,-411,-949,-640
-788,-1234,-955,-584,-1172,-649,-369,-1013,-80,55,-442,-331,-196,-451,-181,177,-714,-402,-430,-816,-644
-582,-968,-770,-355,-1067,-424,-97,-898,-111,-19,-383,-276,-182,-396,-81,277,-599,-457,-256,-377,-628
-303,-633,-471,-58,-910,-147,244,-608,4,75,-224,-120,-19,-272,87,454,-268,-386,-110,189,-620
-320,-674,-445,-82,-889,-183,210,-508,120,222,-172,-71,99,-247,111,458,-132,-282,-183,617,-641
-616,-1040,-739,-415,-1047,-513,-147,-739,83,234,-291,-181,15,-343,-30,308,-376,-273,-392,737,-668
-788,-1250,-955,-610,-1159,-691,-333,-976,-54,98,-426,-314,-160,-432,-140,200,-666,-376,-453,668,-666
-632,-1046,-826,-430,-1091,-516,-130,-928,-116,10,-398,-297,-190,-395,-71,269,-635,-441,-307,518,-634
-330,-680,-511,-95,-919,-201,238,-646,-22,84,-246,-148,-38,-278,88,449,-331,-387,-137,277,-604
-264,-621,-410,-19,-871,-138,291,-500,124,246,-148,-46,110,-210,172,521,-148,-262,-162,-124,-599
-534,-956,-658,-308,-1014,-417,-33,-692,134,294,-228,-126,77,-273,63,399,-340,-219,-366,-724,-614
-760,-1219,-914,-552,-1156,-656,-292,-954,39,200,-350,-241,-65,-357,-54,280,-641,-285,-485,-1243,-611
-673,-1086,-853,-454,-1115,-548,-161,-946,-37,100,-353,-258,-114,-343,-33,309,-653,-358,-370,-1471,-588
-395,-740,-564,-147,-964,-253,171,-694,25,144,-220,-144,-4,-249,102,464,-381,-326,-198,-1448,-564
-301,-640,-438,-48,-898,-162,255,-524,158,289,-119,-48,138,-185,184,543,-175,-221,-195,-1425,-567
-525,-917,-640,-293,-1006,-399,-31,-673,176,340,-185,-105,104,-245,86,427,-317,-180,-364,-1550,-595
-777,-1207,-915,-554,-1154,-662,-317,-954,60,223,-328,-223,-61,-335,-62,289,-640,-268,-475,-1690,-611
-695,-1110,-886,-483,-1133,-578,-208,-988,-36,89,-359,-252,-144,-343,-54,303,-698,-371,-368,-1647,-597
-440,-789,-616,-202,-983,-306,106,-753,26,126,-234,-146,-28,-252,75,446,-429,-341,-212,-1457,-588
-310,-644,-451,-61,-894,-168,229,-552,149,264,-127,-47,113,-194,158,524,-195,-236,-179,-1333,-598
-414,-776,-533,-172,-952,-282,89,-612,193,315,-130,-33,137,-195,134,497,-240,-193,-279,-1356,-616
-578,-959,-716,-348,-1053,-447,-88,-783,113,228,-212,-116,46,-252,62,410,-430,-265,-366,-1414,-617
-551,-923,-720,-320,-1048,-404,-38,-825,28,144,-254,-165,-29,-282,41,399,-491,-333,-301,-1367,-602
-360,-693,-509,-103,-934,-196,185,-643,89,201,-159,-65,56,-216,142,505,-300,-283,-181,-1236,-585
-389,-749,-505,-139,-939,-238,108,-572,195,328,-115,-20,155,-190,158,504,-203,-193,-266,-1219,-600
-699,-1124,-802,-473,-1102,-563,-261,-807,154,324,-245,-140,66,-282,12,342,-457,-197,-475,-1349,-628
-828,-1272,-983,-624,-1199,-698,-391,-1017,11,177,-367,-257,-96,-359,-77,251,-722,-308,-495,-1421,-631
-598,-984,-780,-374,-1093,-454,-102,-901,-31,100,-306,-200,-87,-295,20,365,-615,-367,-295,-1286,-602
-313,-642,-473,-67,-928,-149,229,-613,82,194,-151,-48,77,-178,186,540,-290,-293,-134,-1092,-587
-322,-668,-434,-73,-912,-160,192,-526,187,323,-97,2,179,-145,213,550,-168,-200,-186,-1054,-595
-609,-1020,-717,-396,-1063,-469,-160,-754,155,320,-221,-105,89,-240,75,401,-410,-196,-380,-1182,-616
-788,-1232,-937,-599,-1180,-665,-360,-989,27,191,-343,-231,-68,-328,-43,287,-683,-287,-451,-1276,-613
-642,-1045,-816,-432,-1110,-501,-163,-928,-28,107,-327,-227,-87,-308,9,342,-628,-348,-314,-1197,-589
-365,-709,-529,-136,-954,-215,165,-663,61,179,-179,-92,54,-202,153,498,-326,-287,-157,-1011,-574
-329,-683,-461,-97,-917,-182,175,-538,180,309,-115,-24,179,-164,198,532,-169,-189,-185,-948,-584
-586,-1000,-697,-378,-1044,-456,-141,-734,168,329,-217,-109,110,-243,70,393,-374,-176,-365,-1062,-613
-781,-1230,-928,-586,-1169,-660,-361,-989,44,195,-355,-230,-60,-339,-64,266,-669,-277,-445,-1169,-618
-653,-1063,-840,-455,-1119,-525,-197,-967,-35,85,-349,-236,-110,-323,-19,315,-663,-354,-310,-1110,-600
-370,-710,-551,-136,-964,-226,144,-697,35,136,-213,-116,20,-221,126,474,-376,-316,-133,-927,-578
-293,-634,-431,-53,-902,-147,213,-528,165,291,-130,-34,157,-170,189,529,-167,-213,-147,-834,-591
-534,-937,-638,-310,-1008,-398,-84,-677,185,358,-208,-95,133,-230,80,403,-318,-163,-326,-934,-618
-789,-1242,-925,-574,-1159,-657,-366,-956,57,246,-354,-237,-44,-340,-81,264,-644,-252,-451,-1077,-620
-723,-1153,-895,-498,-1144,-577,-264,-983,-52,101,-389,-267,-130,-358,-71,273,-703,-356,-351,-1043,-600
-419,-773,-596,-166,-984,-259,108,-735,-18,101,-257,-153,-40,-257,80,435,-433,-353,-159,-863,-577
-261,-585,-392,17,-881,-92,278,-507,112,234,-132,-30,120,-176,190,548,-166,-254,-115,-728,-579
-444,-816,-537,-176,-965,-286,36,-598,160,319,-177,-63,132,-222,112,466,-242,-191,-285,-797,-607
-738,-1160,-837,-481,-1127,-584,-291,-882,50,236,-326,-207,-29,-337,-46,314,-567,-262,-443,-950,-625
-753,-1183,-898,-504,-1159,-600,-279,-990,-81,81,-409,-286,-158,-391,-90,278,-726,-383,-394,-970,-613
-489,-859,-653,-221,-1029,-322,45,-801,-78,56,-308,-200,-101,-306,33,406,-523,-398,-215,-809,-595
-302,-638,-437,-16,-916,-122,251,-570,50,176,-171,-73,54,-224,158,534,-246,-312,-141,-659,-589
-434,-807,-523,-153,-968,-263,72,-604,120,283,-180,-69,95,-245,120,479,-262,-236,-270,-688,-603
-716,-1151,-816,-461,-1130,-564,-261,-868,46,227,-314,-188,-31,-348,-27,323,-552,-278,-435,-836,-623
-775,-1206,-918,-531,-1182,-624,-306,-1000,-83,77,-394,-271,-151,-398,-82,264,-723,-397,-408,-869,-613
-535,-910,-698,-277,-1060,-372,-17,-840,-89,30,-313,-198,-106,-327,24,377,-543,-427,-225,-732,-591
-316,-640,-451,-33,-932,-134,244,-583,19,136,-177,-73,39,-240,149,506,-248,-347,-110,-588,-586
-396,-764,-491,-120,-948,-223,124,-564,94,256,-180,-69,94,-255,111,459,-220,-265,-220,-607,-611
-701,-1130,-798,-449,-1116,-540,-234,-835,32,223,-324,-195,-35,-360,-54,297,-520,-286,-409,-773,-638
-819,-1269,-954,-572,-1191,-662,-352,-1022,-94,74,-436,-305,-190,-435,-138,212,-757,-395,-432,-848,-633
-598,-995,-756,-338,-1086,-429,-80,-900,-130,4,-371,-254,-174,-383,-53,311,-628,-450,-266,-730,-605
-329,-654,-466,-34,-932,-139,244,-617,-16,102,-215,-110,-11,-271,103,471,-300,-377,-133,-559,-588
-353,-703,-444,-58,-922,-172,191,-523,104,250,-160,-63,107,-251,122,478,-172,-269,-209,-540,-602
-653,-1070,-733,-382,-1077,-487,-170,-755,86,264,-284,-167,22,-346,-25,329,-423,-254,-414,-694,-633
-820,-1265,-945,-571,-1185,-666,-353,-983,-39,130,-406,-281,-136,-428,-131,223,-703,-352,-475,-808,-638
-660,-1054,-810,-391,-1113,-492,-148,-931,-90,40,-366,-257,-149,-381,-53,302,-662,-413,-320,-743,-611
-364,-689,-504,-70,-946,-176,209,-656,-21,98,-219,-128,-6,-278,94,470,-362,-367,-137,-597,-599
-301,-644,-407,-8,-896,-122,246,-511,108,241,-136,-46,123,-226,154,529,-187,-262,-153,-580,-606
-572,-973,-650,-299,-1025,-403,-83,-697,115,278,-226,-116,72,-292,36,398,-375,-234,-344,-746,-629
-791,-1231,-901,-539,-1155,-636,-332,-948,-5,156,-363,-247,-101,-393,-91,270,-666,-325,-452,-927,-632
-694,-1100,-837,-444,-1120,-529,-201,-939,-85,43,-370,-266,-152,-388,-60,290,-671,-400,-338,-925,-612
-410,-755,-549,-137,-962,-235,138,-679,-14,88,-242,-147,-28,-285,82,448,-397,-363,-169,-811,-595
-313,-661,-417,-37,-888,-140,220,-508,115,231,-140,-49,124,-219,155,520,-185,-263,-158,-775,-605
-521,-926,-608,-279,-992,-375,-57,-651,132,280,-217,-116,93,-276,53,394,-312,-220,-320,-923,-630
-763,-1213,-886,-543,-1143,-633,-337,-934,22,176,-348,-242,-60,-365,-81,264,-625,-292,-441,-1098,-635
-699,-1127,-869,-482,-1134,-563,-247,-978,-75,42,-376,-271,-138,-375,-72,269,-683,-381,-342,-1110,-615
-418,-775,-594,-175,-980,-265,95,-734,-17,60,-247,-159,-30,-277,73,423,-415,-366,-163,-969,-593
-289,-630,-413,-21,-886,-131,235,-520,127,208,-137,-46,131,-199,167,515,-157,-261,-132,-883,-595
-483,-884,-580,-232,-968,-341,-21,-617,176,306,-187,-90,134,-250,91,409,-243,-193,-302,-994,-619
-768,-1217,-881,-542,-1134,-641,-352,-905,80,228,-336,-232,-23,-350,-65,256,-567,-249,-458,-1169,-635
-765,-1205,-919,-546,-1153,-627,-318,-1002,-42,82,-394,-295,-141,-388,-90,238,-705,-359,-398,-1205,-621
-473,-846,-641,-232,-1009,-317,30,-787,-22,62,-289,-200,-70,-294,47,389,-473,-369,-197,-1071,-596
-261,-592,-402,6,-874,-98,277,-526,107,189,-153,-69,97,-196,178,524,-167,-282,-104,-926,-589
-382,-756,-482,-121,-916,-227,110,-543,186,303,-163,-65,148,-209,136,466,-170,-201,-237,-964,-613
-683,-1116,-792,-449,-1082,-541,-241,-817,110,248,-309,-198,8,-312,-23,303,-480,-243,-417,-1129,-630
-760,-1203,-910,-539,-1146,-614,-318,-973,-17,106,-404,-295,-137,-382,-95,233,-681,-349,-408,-1196,-620
-533,-920,-703,-293,-1035,-372,-35,-830,-32,61,-323,-232,-107,-327,4,341,-526,-378,-244,-1072,-592
-296,-640,-440,-38,-896,-122,242,-565,93,175,-179,-93,57,-222,148,486,-219,-286,-130,-930,-577
-364,-750,-471,-119,-915,-199,127,-534,177,297,-168,-78,123,-220,131,452,-178,-211,-227,-950,-594
-652,-1083,-756,-431,-1061,-495,-211,-780,133,263,-294,-189,16,-301,-6,306,-448,-227,-402,-1107,-618
-754,-1197,-900,-552,-1146,-600,-318,-959,5,120,-389,-280,-131,-363,-79,242,-670,-332,-419,-1174,-613
-543,-935,-714,-328,-1046,-377,-62,-839,-30,61,-332,-233,-115,-306,9,336,-552,-387,-257,-1064,-585
-291,-636,-449,-52,-903,-122,222,-574,69,153,-199,-107,37,-213,143,479,-254,-317,-127,-899,-579
-334,-700,-445,-90,-897,-168,150,-515,176,295,-163,-71,134,-201,149,479,-164,-213,-200,-891,-595
-632,-1066,-741,-414,-1059,-486,-206,-762,136,298,-288,-173,34,-292,8,330,-428,-213,-402,-1049,-618
-797,-1261,-947,-596,-1166,-659,-381,-991,3,171,-409,-281,-128,-367,-100,230,-699,-314,-466,-1155,-614
-630,-1038,-807,-405,-1089,-473,-153,-922,-50,79,-371,-255,-142,-336,-30,311,-634,-377,-310,-1068,-590
-332,-678,-503,-89,-925,-167,199,-640,40,153,-211,-116,10,-230,125,487,-316,-318,-147,-904,-571
-290,-644,-414,-39,-886,-128,218,-498,155,289,-144,-52,138,-196,169,520,-133,-227,-183,-857,-585
-566,-986,-665,-339,-1024,-421,-113,-695,158,327,-238,-132,90,-266,50,381,-330,-199,-383,-994,-611
-780,-1233,-907,-570,-1160,-641,-346,-951,39,208,-374,-258,-75,-358,-76,256,-635,-288,-477,-1129,-620
-663,-1083,-835,-449,-1117,-512,-195,-945,-46,94,-375,-266,-131,-344,-40,285,-647,-366,-345,-1081,-600
-367,-729,-545,-122,-961,-204,159,-686,21,137,-231,-140,-7,-241,115,452,-373,-325,-159,-908,-581
-262,-623,-406,-8,-887,-97,257,-505,143,268,-135,-48,124,-181,186,525,-154,-226,-147,-814,-587
-500,-901,-608,-254,-1001,-339,-31,-644,169,332,-194,-106,107,-230,103,419,-293,-170,-321,-916,-608
-752,-1199,-886,-519,-1151,-607,-309,-914,51,225,-342,-242,-54,-334,-44,273,-601,-254,-457,-1060,-609
-696,-1123,-867,-468,-1149,-543,-226,-947,-34,106,-368,-277,-127,-344,-35,283,-662,-343,-377,-1044,-592
-424,-785,-595,-170,-1002,-259,106,-718,18,128,-245,-167,-24,-248,103,439,-410,-327,-208,-878,-574
-301,-645,-434,-30,-913,-129,236,-525,137,253,-148,-64,116,-187,182,530,-183,-241,-183,-755,-582
-493,-894,-600,-245,-1009,-328,-17,-637,175,319,-200,-95,111,-237,105,428,-287,-185,-341,-826,-613
-753,-1205,-887,-535,-1164,-601,-323,-916,68,225,-338,-228,-46,-336,-42,285,-605,-256,-473,-958,-625
-742,-1181,-924,-525,-1175,-587,-287,-1001,-53,77,-397,-286,-162,-374,-71,267,-732,-371,-412,-956,-608
-468,-839,-655,-231,-1029,-301,45,-789,-21,72,-279,-183,-83,-282,62,411,-497,-374,-231,-795,-592
-281,-623,-436,-26,-912,-114,241,-537,118,208,-147,-60,86,-190,180,534,-197,-273,-171,-659,-591
-433,-820,-549,-199,-970,-274,33,-577,191,325,-162,-70,139,-218,129,468,-215,-184,-315,-717,-611
-731,-1169,-853,-517,-1130,-585,-315,-846,100,263,-315,-211,-12,-331,-45,294,-514,-234,-482,-883,-628
-772,-1211,-935,-569,-1171,-630,-349,-981,-25,101,-401,-293,-156,-394,-111,232,-691,-352,-456,-939,-622
-508,-882,-690,-283,-1036,-360,-31,-819,-21,51,-307,-212,-111,-317,7,362,-511,-381,-264,-802,-601
-251,-580,-414,-6,-888,-100,263,-548,99,154,-157,-76,56,-211,153,509,-193,-300,-141,-668,-594
-321,-679,-447,-79,-902,-173,154,-516,185,270,-137,-54,138,-209,134,481,-136,-210,-234,-704,-613
-613,-1035,-743,-407,-1056,-489,-203,-773,128,243,-267,-172,28,-309,-18,321,-405,-228,-426,-902,-633
-752,-1191,-921,-564,-1151,-636,-340,-980,2,97,-384,-291,-128,-395,-116,228,-642,-340,-470,-1044,-630
-555,-942,-747,-348,-1055,-427,-93,-877,-34,37,-340,-260,-123,-350,-38,308,-547,-389,-315,-985,-600
-293,-629,-474,-62,-909,-162,210,-615,70,128,-201,-129,26,-249,100,456,-238,-320,-183,-868,-580
-316,-679,-453,-87,-898,-193,157,-542,173,260,-153,-85,122,-232,117,452,-135,-230,-258,-884,-588
-587,-1007,-717,-389,-1040,-489,-172,-767,134,251,-274,-180,27,-324,-15,306,-376,-236,-438,-1053,-615
-730,-1172,-901,-553,-1136,-634,-326,-975,-3,100,-396,-289,-135,-399,-117,206,-636,-353,-475,-1173,-614
-562,-957,-767,-362,-1058,-452,-107,-897,-59,12,-361,-263,-149,-355,-43,278,-580,-419,-325,-1105,-593
-296,-635,-487,-73,-910,-173,210,-624,23,86,-231,-142,-16,-257,95,421,-271,-370,-167,-952,-589
-287,-645,-435,-55,-882,-157,198,-511,134,236,-169,-85,95,-228,132,444,-125,-266,-223,-920,-600
-572,-1000,-705,-363,-1031,-457,-152,-729,127,269,-272,-176,25,-314,-1,298,-352,-247,-421,-1075,-624
-780,-1244,-946,-589,-1162,-667,-374,-985,-8,148,-413,-310,-148,-410,-131,173,-657,-339,-502,-1214,-625
-644,-1066,-845,-443,-1103,-519,-197,-951,-82,38,-405,-317,-192,-391,-82,223,-643,-417,-365,-1154,-596
-341,-690,-529,-110,-938,-196,170,-665,-8,92,-261,-179,-47,-284,74,393,-327,-369,-181,-909,-579
-275,-633,-426,-44,-885,-131,217,-514,114,239,-182,-100,78,-240,131,452,-126,-270,-196,-702,-590
-531,-934,-654,-318,-1006,-399,-99,-688,103,262,-287,-187,22,-322,3,309,-305,-247,-368,-556,-623
-747,-1192,-905,-557,-1141,-633,-343,-935,-26,130,-436,-324,-152,-425,-142,172,-600,-342,-459,-311,-639
-650,-1064,-844,-464,-1101,-527,-214,-938,-123,6,-461,-349,-212,-436,-131,194,-616,-432,-342,125,-635
-356,-705,-554,-141,-946,-216,141,-679,-73,29,-333,-236,-111,-348,5,348,-336,-411,-160,662,-627
-238,-590,-405,-17,-868,-105,250,-508,44,165,-238,-133,19,-287,76,426,-119,-313,-147,960,-640
-460,-861,-595,-249,-973,-340,-26,-633,72,227,-301,-191,-7,-344,-24,321,-248,-266,-328,831,-665
-718,-1160,-870,-516,-1120,-612,-309,-900,-23,140,-434,-316,-143,-440,-160,191,-552,-336,-467,414,-664
-667,-1094,-858,-464,-1115,-551,-225,-934,-109,31,-461,-343,-215,-454,-157,204,-607,-418,-389,0,-631
-398,-760,-590,-166,-972,-262,103,-710,-44,64,-328,-230,-104,-349,-9,366,-360,-389,-221,-321,-597
-252,-604,-411,-8,-877,-118,257,-507,97,214,-206,-107,63,-258,99,475,-123,-280,-187,-680,-590
-424,-830,-564,-202,-960,-306,29,-601,144,293,-243,-137,76,-294,33,387,-209,-214,-334,-1125,-601
-701,-1146,-853,-489,-1119,-591,-270,-879,45,207,-372,-258,-68,-378,-106,241,-525,-267,-472,-1510,-607
-699,-1131,-889,-485,-1137,-572,-239,-966,-68,54,-429,-314,-190,-411,-129,220,-654,-378,-413,-1647,-601
-442,-801,-630,-201,-999,-292,86,-768,-39,47,-310,-209,-111,-312,17,365,-433,-378,-237,-1543,-582
-256,-591,-410,1,-880,-92,285,-515,100,189,-166,-85,63,-214,144,495,-139,-274,-174,-1424,-581
-406,-793,-519,-164,-945,-244,60,-552,174,310,-186,-96,105,-244,95,427,-169,-190,-321,-1467,-603
-714,-1151,-825,-496,-1110,-555,-306,-833,99,266,-332,-232,-33,-343,-49,266,-486,-232,-498,-1615,-619
-760,-1198,-916,-558,-1153,-596,-346,-974,-27,117,-416,-309,-168,-393,-101,218,-669,-353,-466,-1634,-604
-498,-869,-680,-268,-1026,-311,-22,-805,-33,68,-320,-222,-117,-310,24,349,-497,-384,-264,-1473,-571
-247,-573,-411,0,-890,-52,265,-527,78,172,-181,-94,44,-205,166,491,-182,-307,-138,-1287,-558
-338,-701,-465,-89,-923,-145,135,-508,152,290,-177,-83,102,-211,149,462,-144,-235,-247,-1276,-581
-630,-1059,-757,-407,-1083,-451,-220,-772,88,255,-314,-196,-23,-310,8,313,-437,-265,-427,-1416,-603
-744,-1190,-908,-524,-1168,-566,-331,-955,-39,103,-412,-293,-171,-380,-69,241,-663,-372,-448,-1469,-601
-551,-937,-729,-318,-1070,-354,-80,-841,-69,42,-350,-244,-156,-330,13,336,-549,-415,-294,-1336,-581
-310,-640,-465,-50,-930,-97,214,-583,37,133,-214,-113,-7,-244,140,475,-244,-352,-164,-1154,-576
-333,-696,-449,-76,-918,-132,156,-514,135,255,-178,-68,82,-225,144,477,-149,-266,-239,-1130,-596
-603,-1028,-718,-373,-1064,-425,-175,-748,100,234,-298,-172,-19,-325,4,332,-398,-277,-418,-1252,-619
-726,-1175,-893,-525,-1157,-569,-311,-954,-34,85,-414,-285,-176,-401,-101,240,-644,-388,-454,-1318,-619
-545,-948,-739,-334,-1074,-379,-85,-871,-85,-5,-378,-262,-187,-370,-39,317,-562,-452,-301,-1209,-589
-284,-622,-462,-53,-924,-110,231,-603,13,76,-243,-137,-39,-277,86,462,-259,-388,-165,-1037,-579
-279,-633,-418,-53,-901,-122,205,-506,129,226,-183,-86,72,-248,99,474,-122,-276,-217,-1001,-592
-578,-994,-711,-370,-1059,-435,-162,-732,112,245,-294,-187,0,-344,-41,318,-357,-257,-420,-1130,-618
-782,-1234,-959,-594,-1187,-652,-392,-991,-23,114,-433,-316,-167,-442,-171,189,-655,-347,-509,-1231,-620
-634,-1053,-849,-442,-1125,-503,-212,-956,-89,11,-418,-317,-209,-421,-122,235,-626,-422,-369,-1147,-594
-319,-675,-529,-103,-950,-185,156,-664,2,67,-263,-177,-61,-305,27,407,-311,-378,-184,-944,-580
-233,-585,-397,-13,-880,-99,229,-485,140,224,-165,-76,96,-232,112,476,-90,-262,-192,-845,-583
-476,-888,-618,-279,-996,-357,-78,-639,156,279,-243,-152,68,-297,8,343,-249,-213,-378,-944,-603
-732,-1190,-900,-548,-1148,-614,-363,-913,39,173,-383,-282,-98,-391,-126,201,-582,-293,-499,-1077,-612
-665,-1100,-865,-478,-1129,-535,-254,-944,-63,48,-411,-311,-182,-393,-105,222,-647,-388,-386,-1052,-598
-378,-747,-579,-159,-971,-229,106,-701,-17,65,-287,-201,-82,-294,45,387,-394,-381,-197,-875,-581
-242,-606,-405,-11,-884,-86,251,-494,103,198,-183,-99,64,-225,143,477,-164,-285,-160,-759,-583
-433,-847,-568,-222,-979,-288,3,-598,149,285,-217,-130,78,-264,78,388,-260,-226,-316,-828,-612
-702,-1163,-858,-507,-1137,-563,-305,-866,56,205,-344,-258,-66,-352,-51,254,-569,-281,-456,-959,-623
-684,-1128,-878,-489,-1141,-539,-253,-926,-50,77,-391,-306,-160,-372,-64,247,-663,-384,-385,-933,-607
-416,-798,-619,-207,-1006,-260,79,-714,-28,73,-294,-221,-81,-290,63,381,-437,-390,-205,-761,-581
-254,-605,-418,-11,-897,-88,266,-485,107,210,-166,-96,80,-201,181,496,-171,-284,-142,-628,-574
-402,-807,-543,-181,-963,-250,52,-550,169,308,-190,-108,105,-232,126,424,-224,-208,-280,-677,-594
-692,-1141,-841,-485,-1115,-540,-285,-827,84,240,-329,-229,-42,-324,-25,274,-538,-250,-426,-832,-611
-730,-1180,-921,-534,-1157,-573,-307,-959,-51,80,-412,-315,-178,-381,-88,224,-708,-375,-388,-872,-608
-476,-863,-683,-258,-1025,-306,13,-784,-44,52,-309,-223,-115,-309,30,358,-515,-394,-203,-725,-590
-256,-596,-427,-14,-889,-85,267,-517,91,181,-162,-88,61,-215,166,492,-191,-299,-111,-567,-590
